Time file:	R:\UCL_SSID\SSID_DATABASE\SSID_London\OFF_CamdenTown1_FULL_190502\OFF_CamdenTown1_BIN_190502\CamdenTown1_HDF\11-52_3.hdf
Mark:		11-52_3 (0.00 - 35.16 s)
Filter:	
Analysis:	Speech Interference Level vs. Time (SIL-4; Fast)
Statistic:	Max[11-52_3.{Left,Right}]
Kind:	SpeechInterferenceLevel
Abscissa 1:	Time,s
Channel 1:	Max {Pa},Speech Interference Level,dB(SPL),N/A=n/a ; Avg,arith=58.32; SIL5=61.55; SIL10=60.47; SIL50=57.94; SIL90=56.28; SIL95=56.02 dB(SPL); Min=55.00 dB(SPL) @21.3 s; Max=64.37 dB(SPL) @0.283 s
Comment:
<User Comment>
CT103
<>
SQobold SD recording
S/N 33020299 Name U London FW 1.5/3
Ch1: 104 dB(SPL) ICP
Ch2: 104 dB(SPL) ICP
User Information:
SSID Field Binaural Basic/Comments = Cars passing, people talking, squealing brakes
SSID Field Binaural Basic/Delete/scratch? = False
SSID Field Binaural Basic/End Buffer = 
SSID Field Binaural Basic/GroupID = CT103
SSID Field Binaural Basic/No edit needed = True
SSID Field Binaural Basic/SessionID = CamdenTown1
SSID Field Binaural Basic/Start Buffer = 


0,61.53
0.00533333,61.47
0.0106667,61.51
0.016,61.53
0.0213333,61.54
0.0266667,61.51
0.032,61.55
0.0373333,61.54
0.0426667,61.47
0.048,61.51
0.0533333,61.47
0.0586667,61.46
0.064,61.42
0.0693333,61.46
0.0746667,61.42
0.08,61.39
0.0853333,61.34
0.0906667,61.33
0.096,61.24
0.101333,61.16
0.106667,61.07
0.112,60.99
0.117333,60.92
0.122667,60.93
0.128,60.87
0.133333,60.81
0.138667,60.76
0.144,60.73
0.149333,60.67
0.154667,60.63
0.16,60.56
0.165333,60.6
0.170667,60.57
0.176,60.61
0.181333,60.59
0.186667,60.66
0.192,60.88
0.197333,60.99
0.202667,61.1
0.208,61.35
0.213333,61.47
0.218667,61.81
0.224,62.14
0.229333,62.29
0.234667,62.54
0.24,62.77
0.245333,62.97
0.250667,63.31
0.256,63.49
0.261333,63.83
0.266667,64.05
0.272,64.19
0.277333,64.37
0.282667,64.37
0.288,64.36
0.293333,64.28
0.298667,64.14
0.304,64.02
0.309333,63.87
0.314667,63.75
0.32,63.71
0.325333,63.65
0.330667,63.59
0.336,63.53
0.341333,63.49
0.346667,63.36
0.352,63.22
0.357333,63.11
0.362667,63
0.368,62.89
0.373333,62.77
0.378667,62.66
0.384,62.53
0.389333,62.43
0.394667,62.35
0.4,62.27
0.405333,62.22
0.410667,62.14
0.416,62.1
0.421333,62.05
0.426667,61.92
0.432,61.84
0.437333,61.75
0.442667,61.64
0.448,61.55
0.453333,61.5
0.458667,61.41
0.464,61.33
0.469333,61.22
0.474667,61.1
0.48,61
0.485333,60.9
0.490667,60.84
0.496,60.78
0.501333,60.71
0.506667,60.66
0.512,60.6
0.517333,60.57
0.522667,60.65
0.528,60.66
0.533333,60.66
0.538667,60.69
0.544,60.74
0.549333,60.76
0.554667,60.7
0.56,60.72
0.565333,60.65
0.570667,60.55
0.576,60.47
0.581333,60.42
0.586667,60.36
0.592,60.28
0.597333,60.2
0.602667,60.16
0.608,60.07
0.613333,60.01
0.618667,59.97
0.624,59.89
0.629333,59.83
0.634667,59.75
0.64,59.73
0.645333,59.73
0.650667,59.67
0.656,59.58
0.661333,59.57
0.666667,59.52
0.672,59.47
0.677333,59.45
0.682667,59.38
0.688,59.39
0.693333,59.42
0.698667,59.41
0.704,59.56
0.709333,59.63
0.714667,59.62
0.72,59.58
0.725333,59.5
0.730667,59.44
0.736,59.47
0.741333,59.47
0.746667,59.47
0.752,59.43
0.757333,59.44
0.762667,59.5
0.768,59.52
0.773333,59.52
0.778667,59.49
0.784,59.5
0.789333,59.52
0.794667,59.52
0.8,59.48
0.805333,59.44
0.810667,59.43
0.816,59.42
0.821333,59.46
0.826667,59.42
0.832,59.39
0.837333,59.43
0.842667,59.54
0.848,59.6
0.853333,59.68
0.858667,59.71
0.864,59.77
0.869333,59.85
0.874667,60.14
0.88,60.37
0.885333,60.4
0.890667,60.4
0.896,60.4
0.901333,60.45
0.906667,60.52
0.912,60.53
0.917333,60.57
0.922667,60.54
0.928,60.46
0.933333,60.41
0.938667,60.51
0.944,60.47
0.949333,60.42
0.954667,60.31
0.96,60.2
0.965333,60.12
0.970667,60.05
0.976,59.97
0.981333,59.92
0.986667,59.85
0.992,59.89
0.997333,59.82
1.002667,59.76
1.008,59.68
1.013333,59.67
1.018667,59.67
1.024,59.71
1.029333,59.74
1.034667,59.72
1.04,59.68
1.045333,59.68
1.050667,59.75
1.056,59.73
1.061333,59.65
1.066667,59.62
1.072,59.59
1.077333,59.53
1.082667,59.5
1.088,59.52
1.093333,59.48
1.098667,59.44
1.104,59.43
1.109333,59.41
1.114667,59.44
1.12,59.49
1.125333,59.47
1.130667,59.43
1.136,59.4
1.141333,59.38
1.146667,59.34
1.152,59.3
1.157333,59.24
1.162667,59.22
1.168,59.2
1.173333,59.16
1.178667,59.13
1.184,59.13
1.189333,59.08
1.194667,59.21
1.2,59.29
1.205333,59.29
1.210667,59.26
1.216,59.21
1.221333,59.12
1.226667,59.1
1.232,59.03
1.237333,59.03
1.242667,59.04
1.248,58.99
1.253333,58.96
1.258667,58.94
1.264,59.04
1.269333,59.03
1.274667,59.03
1.28,58.95
1.285333,58.95
1.290667,59
1.296,58.99
1.301333,58.89
1.306667,58.81
1.312,58.73
1.317333,58.71
1.322667,58.62
1.328,58.56
1.333333,58.53
1.338667,58.55
1.344,58.48
1.349333,58.42
1.354667,58.44
1.36,58.34
1.365333,58.3
1.370667,58.26
1.376,58.22
1.381333,58.18
1.386667,58.12
1.392,58.14
1.397333,58.09
1.402667,58.05
1.408,58.07
1.413333,58.03
1.418667,57.99
1.424,58.01
1.429333,57.97
1.434667,57.96
1.44,57.89
1.445333,57.85
1.450667,57.86
1.456,57.8
1.461333,57.82
1.466667,57.81
1.472,57.84
1.477333,57.79
1.482667,57.82
1.488,57.79
1.493333,57.83
1.498667,57.79
1.504,57.84
1.509333,57.83
1.514667,57.79
1.52,57.8
1.525333,57.84
1.530667,57.74
1.536,57.7
1.541333,57.67
1.546667,57.67
1.552,57.73
1.557333,57.84
1.562667,57.83
1.568,57.92
1.573333,57.93
1.578667,57.97
1.584,58
1.589333,57.98
1.594667,57.98
1.6,58
1.605333,57.99
1.610667,58.06
1.616,58.09
1.621333,58.01
1.626667,58.03
1.632,58.06
1.637333,58.11
1.642667,58.11
1.648,58.07
1.653333,58.12
1.658667,58.13
1.664,58.09
1.669333,58.04
1.674667,58.03
1.68,57.99
1.685333,57.95
1.690667,57.95
1.696,57.96
1.701333,57.91
1.706667,57.87
1.712,57.79
1.717333,57.83
1.722667,57.84
1.728,57.86
1.733333,57.84
1.738667,57.84
1.744,57.86
1.749333,57.86
1.754667,57.87
1.76,57.88
1.765333,57.92
1.770667,57.97
1.776,57.93
1.781333,57.92
1.786667,57.93
1.792,57.87
1.797333,57.88
1.802667,57.86
1.808,57.86
1.813333,57.85
1.818667,57.84
1.824,57.88
1.829333,57.86
1.834667,57.89
1.84,57.87
1.845333,57.88
1.850667,57.84
1.856,57.83
1.861333,57.81
1.866667,57.88
1.872,57.95
1.877333,58.1
1.882667,58.16
1.888,58.1
1.893333,58.15
1.898667,58.18
1.904,58.18
1.909333,58.33
1.914667,58.39
1.92,58.44
1.925333,58.48
1.930667,58.53
1.936,58.66
1.941333,58.62
1.946667,58.7
1.952,58.73
1.957333,58.71
1.962667,58.74
1.968,58.73
1.973333,58.75
1.978667,58.81
1.984,58.89
1.989333,58.98
1.994667,59.03
2,59.06
2.005333,59.03
2.010667,59.04
2.016,59.04
2.021333,59.05
2.026667,59.08
2.032,59.08
2.037333,59.04
2.042667,59.02
2.048,59.02
2.053333,58.99
2.058667,59.02
2.064,58.95
2.069333,58.9
2.074667,58.9
2.08,58.93
2.085333,58.93
2.090667,58.95
2.096,58.91
2.101333,58.89
2.106667,58.89
2.112,58.87
2.117333,58.93
2.122667,58.89
2.128,58.9
2.133333,58.83
2.138667,58.85
2.144,58.88
2.149333,58.85
2.154667,58.8
2.16,58.79
2.165333,58.68
2.170667,58.62
2.176,58.63
2.181333,58.67
2.186667,58.66
2.192,58.73
2.197333,58.7
2.202667,58.7
2.208,58.69
2.213333,58.66
2.218667,58.56
2.224,58.51
2.229333,58.4
2.234667,58.31
2.24,58.29
2.245333,58.29
2.250667,58.35
2.256,58.31
2.261333,58.26
2.266667,58.18
2.272,58.1
2.277333,58.09
2.282667,58.12
2.288,58.06
2.293333,58.05
2.298667,58.14
2.304,58.08
2.309333,58.05
2.314667,58.03
2.32,58.02
2.325333,58.04
2.330667,58.05
2.336,58.05
2.341333,58.11
2.346667,58.11
2.352,58.05
2.357333,58.02
2.362667,58.04
2.368,58.07
2.373333,58.11
2.378667,58.18
2.384,58.21
2.389333,58.22
2.394667,58.18
2.4,58.14
2.405333,58.15
2.410667,58.08
2.416,58.05
2.421333,58.01
2.426667,58.08
2.432,58.09
2.437333,58.12
2.442667,58.14
2.448,58.11
2.453333,58.11
2.458667,58.12
2.464,58.16
2.469333,58.16
2.474667,58.23
2.48,58.27
2.485333,58.35
2.490667,58.31
2.496,58.29
2.501333,58.29
2.506667,58.29
2.512,58.37
2.517333,58.32
2.522667,58.32
2.528,58.36
2.533333,58.33
2.538667,58.29
2.544,58.28
2.549333,58.36
2.554667,58.32
2.56,58.3
2.565333,58.24
2.570667,58.25
2.576,58.19
2.581333,58.16
2.586667,58.12
2.592,58.11
2.597333,58.1
2.602667,58.05
2.608,58.02
2.613333,57.94
2.618667,57.93
2.624,57.88
2.629333,57.91
2.634667,57.83
2.64,57.84
2.645333,57.87
2.650667,57.85
2.656,57.81
2.661333,57.76
2.666667,57.77
2.672,57.76
2.677333,57.72
2.682667,57.67
2.688,57.78
2.693333,57.84
2.698667,57.88
2.704,57.91
2.709333,57.94
2.714667,57.96
2.72,57.96
2.725333,57.94
2.730667,57.96
2.736,57.98
2.741333,58.01
2.746667,57.98
2.752,57.97
2.757333,58
2.762667,58.11
2.768,58.05
2.773333,58.03
2.778667,58.05
2.784,58.13
2.789333,58.26
2.794667,58.25
2.8,58.24
2.805333,58.22
2.810667,58.22
2.816,58.21
2.821333,58.24
2.826667,58.29
2.832,58.45
2.837333,58.68
2.842667,58.81
2.848,58.82
2.853333,58.86
2.858667,58.81
2.864,58.76
2.869333,58.7
2.874667,58.7
2.88,58.62
2.885333,58.66
2.890667,58.65
2.896,58.65
2.901333,58.58
2.906667,58.49
2.912,58.5
2.917333,58.48
2.922667,58.52
2.928,58.49
2.933333,58.48
2.938667,58.48
2.944,58.45
2.949333,58.42
2.954667,58.41
2.96,58.35
2.965333,58.32
2.970667,58.27
2.976,58.26
2.981333,58.21
2.986667,58.15
2.992,58.08
2.997333,58.05
3.002667,58.03
3.008,57.98
3.013333,57.93
3.018667,57.95
3.024,57.91
3.029333,57.95
3.034667,57.95
3.04,57.97
3.045333,58.02
3.050667,57.98
3.056,57.92
3.061333,57.9
3.066667,57.83
3.072,57.78
3.077333,57.84
3.082667,57.81
3.088,57.81
3.093333,57.75
3.098667,57.73
3.104,57.67
3.109333,57.7
3.114667,57.7
3.12,57.71
3.125333,57.75
3.130667,57.7
3.136,57.65
3.141333,57.69
3.146667,57.69
3.152,57.69
3.157333,57.65
3.162667,57.6
3.168,57.67
3.173333,57.67
3.178667,57.67
3.184,57.65
3.189333,57.71
3.194667,57.72
3.2,57.77
3.205333,57.75
3.210667,57.75
3.216,57.73
3.221333,57.75
3.226667,57.8
3.232,57.82
3.237333,57.82
3.242667,57.86
3.248,57.91
3.253333,57.92
3.258667,57.97
3.264,58.13
3.269333,58.16
3.274667,58.21
3.28,58.15
3.285333,58.11
3.290667,58.11
3.296,58.15
3.301333,58.18
3.306667,58.22
3.312,58.18
3.317333,58.2
3.322667,58.19
3.328,58.26
3.333333,58.25
3.338667,58.27
3.344,58.28
3.349333,58.27
3.354667,58.27
3.36,58.35
3.365333,58.34
3.370667,58.32
3.376,58.28
3.381333,58.24
3.386667,58.22
3.392,58.18
3.397333,58.24
3.402667,58.33
3.408,58.36
3.413333,58.33
3.418667,58.38
3.424,58.32
3.429333,58.36
3.434667,58.34
3.44,58.33
3.445333,58.3
3.450667,58.29
3.456,58.27
3.461333,58.27
3.466667,58.32
3.472,58.31
3.477333,58.35
3.482667,58.33
3.488,58.25
3.493333,58.28
3.498667,58.22
3.504,58.28
3.509333,58.26
3.514667,58.18
3.52,58.25
3.525333,58.2
3.530667,58.26
3.536,58.27
3.541333,58.27
3.546667,58.27
3.552,58.25
3.557333,58.27
3.562667,58.29
3.568,58.35
3.573333,58.33
3.578667,58.43
3.584,58.33
3.589333,58.28
3.594667,58.24
3.6,58.25
3.605333,58.19
3.610667,58.22
3.616,58.24
3.621333,58.31
3.626667,58.37
3.632,58.45
3.637333,58.42
3.642667,58.39
3.648,58.45
3.653333,58.42
3.658667,58.49
3.664,58.46
3.669333,58.57
3.674667,58.57
3.68,58.65
3.685333,58.76
3.690667,58.78
3.696,58.74
3.701333,58.77
3.706667,58.86
3.712,58.91
3.717333,58.88
3.722667,59.02
3.728,59.05
3.733333,59.15
3.738667,59.1
3.744,59.23
3.749333,59.32
3.754667,59.32
3.76,59.36
3.765333,59.36
3.770667,59.34
3.776,59.27
3.781333,59.29
3.786667,59.29
3.792,59.25
3.797333,59.42
3.802667,59.38
3.808,59.34
3.813333,59.24
3.818667,59.17
3.824,59.11
3.829333,59.13
3.834667,59.1
3.84,59.13
3.845333,59.08
3.850667,59.02
3.856,59.03
3.861333,59.06
3.866667,58.99
3.872,59.03
3.877333,59.04
3.882667,58.99
3.888,59.01
3.893333,59.03
3.898667,58.99
3.904,58.99
3.909333,58.91
3.914667,58.85
3.92,58.87
3.925333,58.89
3.930667,58.9
3.936,58.91
3.941333,58.91
3.946667,58.9
3.952,58.91
3.957333,58.89
3.962667,58.94
3.968,58.91
3.973333,58.9
3.978667,58.84
3.984,58.83
3.989333,58.78
3.994667,58.76
4,58.68
4.005333,58.67
4.010667,58.69
4.016,58.66
4.021333,58.63
4.026667,58.66
4.032,58.61
4.037333,58.72
4.042667,58.74
4.048,58.76
4.053333,58.73
4.058667,58.7
4.064,58.68
4.069333,58.72
4.074667,58.85
4.08,58.84
4.085333,58.91
4.090667,58.95
4.096,58.91
4.101333,58.88
4.106667,58.89
4.112,58.89
4.117333,58.81
4.122667,58.78
4.128,58.81
4.133333,58.75
4.138667,58.84
4.144,58.87
4.149333,58.81
4.154667,58.82
4.16,58.89
4.165333,58.92
4.170667,59.1
4.176,59.24
4.181333,59.39
4.186667,59.58
4.192,59.73
4.197333,59.99
4.202667,60.03
4.208,60.03
4.213333,60
4.218667,59.96
4.224,59.91
4.229333,59.93
4.234667,60
4.24,60.04
4.245333,60.04
4.250667,60.01
4.256,60.01
4.261333,60
4.266667,60.03
4.272,60.01
4.277333,59.98
4.282667,59.93
4.288,59.83
4.293333,59.79
4.298667,59.69
4.304,59.67
4.309333,59.63
4.314667,59.62
4.32,59.61
4.325333,59.56
4.330667,59.5
4.336,59.45
4.341333,59.42
4.346667,59.46
4.352,59.42
4.357333,59.35
4.362667,59.34
4.368,59.34
4.373333,59.39
4.378667,59.46
4.384,59.5
4.389333,59.48
4.394667,59.46
4.4,59.56
4.405333,59.57
4.410667,59.59
4.416,59.55
4.421333,59.57
4.426667,59.6
4.432,59.6
4.437333,59.65
4.442667,59.62
4.448,59.54
4.453333,59.56
4.458667,59.53
4.464,59.44
4.469333,59.43
4.474667,59.38
4.48,59.39
4.485333,59.32
4.490667,59.27
4.496,59.22
4.501333,59.17
4.506667,59.18
4.512,59.15
4.517333,59.11
4.522667,59.1
4.528,59.1
4.533333,59.04
4.538667,59.06
4.544,59
4.549333,58.99
4.554667,58.92
4.56,58.87
4.565333,58.87
4.570667,58.89
4.576,58.83
4.581333,58.73
4.586667,58.72
4.592,58.68
4.597333,58.69
4.602667,58.69
4.608,58.75
4.613333,58.69
4.618667,58.72
4.624,58.75
4.629333,58.86
4.634667,58.84
4.64,58.84
4.645333,58.81
4.650667,58.99
4.656,58.99
4.661333,58.98
4.666667,58.95
4.672,58.89
4.677333,58.86
4.682667,58.85
4.688,58.79
4.693333,58.74
4.698667,58.69
4.704,58.65
4.709333,58.63
4.714667,58.61
4.72,58.67
4.725333,58.65
4.730667,58.76
4.736,58.83
4.741333,58.89
4.746667,58.92
4.752,58.95
4.757333,58.9
4.762667,58.86
4.768,58.85
4.773333,58.88
4.778667,58.87
4.784,58.93
4.789333,58.88
4.794667,58.84
4.8,58.87
4.805333,58.82
4.810667,58.79
4.816,58.84
4.821333,58.79
4.826667,58.72
4.832,58.68
4.837333,58.69
4.842667,58.63
4.848,58.67
4.853333,58.59
4.858667,58.61
4.864,58.74
4.869333,58.78
4.874667,58.86
4.88,59.01
4.885333,59.1
4.890667,59.27
4.896,59.32
4.901333,59.5
4.906667,59.53
4.912,59.48
4.917333,59.5
4.922667,59.54
4.928,59.59
4.933333,59.62
4.938667,59.6
4.944,59.65
4.949333,59.68
4.954667,59.77
4.96,59.9
4.965333,59.98
4.970667,59.92
4.976,59.87
4.981333,59.87
4.986667,59.92
4.992,59.95
4.997333,59.92
5.002667,59.92
5.008,59.91
5.013333,59.89
5.018667,59.86
5.024,59.87
5.029333,59.86
5.034667,59.79
5.04,59.82
5.045333,59.78
5.050667,59.74
5.056,59.72
5.061333,59.66
5.066667,59.6
5.072,59.52
5.077333,59.43
5.082667,59.36
5.088,59.34
5.093333,59.25
5.098667,59.14
5.104,59.06
5.109333,59.05
5.114667,58.97
5.12,58.88
5.125333,58.82
5.130667,58.75
5.136,58.75
5.141333,58.68
5.146667,58.61
5.152,58.53
5.157333,58.48
5.162667,58.44
5.168,58.36
5.173333,58.28
5.178667,58.21
5.184,58.21
5.189333,58.21
5.194667,58.13
5.2,58.08
5.205333,58.06
5.210667,57.99
5.216,57.95
5.221333,57.92
5.226667,57.9
5.232,57.91
5.237333,57.97
5.242667,58.01
5.248,58.09
5.253333,58.01
5.258667,58.03
5.264,58.06
5.269333,58.08
5.274667,58.09
5.28,58.12
5.285333,58.09
5.290667,58.03
5.296,57.93
5.301333,57.92
5.306667,57.91
5.312,57.87
5.317333,57.76
5.322667,57.74
5.328,57.67
5.333333,57.63
5.338667,57.61
5.344,57.52
5.349333,57.5
5.354667,57.48
5.36,57.44
5.365333,57.53
5.370667,57.52
5.376,57.62
5.381333,57.7
5.386667,57.72
5.392,57.7
5.397333,57.67
5.402667,57.66
5.408,57.77
5.413333,57.9
5.418667,57.98
5.424,58.16
5.429333,58.17
5.434667,58.22
5.44,58.3
5.445333,58.28
5.450667,58.22
5.456,58.24
5.461333,58.31
5.466667,58.28
5.472,58.34
5.477333,58.34
5.482667,58.4
5.488,58.41
5.493333,58.38
5.498667,58.38
5.504,58.34
5.509333,58.31
5.514667,58.44
5.52,58.47
5.525333,58.49
5.530667,58.57
5.536,58.54
5.541333,58.55
5.546667,58.5
5.552,58.57
5.557333,58.61
5.562667,58.64
5.568,58.6
5.573333,58.62
5.578667,58.59
5.584,58.61
5.589333,58.6
5.594667,58.6
5.6,58.55
5.605333,58.51
5.610667,58.51
5.616,58.55
5.621333,58.49
5.626667,58.45
5.632,58.37
5.637333,58.41
5.642667,58.37
5.648,58.33
5.653333,58.23
5.658667,58.31
5.664,58.24
5.669333,58.26
5.674667,58.2
5.68,58.13
5.685333,58.13
5.690667,58.06
5.696,58.06
5.701333,58.1
5.706667,58.07
5.712,57.98
5.717333,57.93
5.722667,57.93
5.728,57.84
5.733333,57.79
5.738667,57.86
5.744,57.83
5.749333,57.77
5.754667,57.76
5.76,57.78
5.765333,57.87
5.770667,57.8
5.776,57.81
5.781333,57.84
5.786667,57.83
5.792,57.87
5.797333,57.91
5.802667,57.93
5.808,57.97
5.813333,57.95
5.818667,58.02
5.824,58.11
5.829333,58.06
5.834667,58.08
5.84,58.14
5.845333,58.21
5.850667,58.21
5.856,58.27
5.861333,58.26
5.866667,58.25
5.872,58.28
5.877333,58.32
5.882667,58.29
5.888,58.32
5.893333,58.31
5.898667,58.38
5.904,58.35
5.909333,58.3
5.914667,58.27
5.92,58.32
5.925333,58.31
5.930667,58.36
5.936,58.36
5.941333,58.42
5.946667,58.55
5.952,58.52
5.957333,58.63
5.962667,58.7
5.968,58.68
5.973333,58.63
5.978667,58.71
5.984,58.73
5.989333,58.8
5.994667,58.92
6,59
6.005333,59.01
6.010667,59.06
6.016,59.11
6.021333,59.16
6.026667,59.14
6.032,59.06
6.037333,59.11
6.042667,59.06
6.048,59.03
6.053333,59
6.058667,59.06
6.064,59.03
6.069333,59.01
6.074667,58.96
6.08,58.93
6.085333,58.94
6.090667,59
6.096,59.13
6.101333,59.19
6.106667,59.22
6.112,59.23
6.117333,59.22
6.122667,59.29
6.128,59.31
6.133333,59.28
6.138667,59.33
6.144,59.31
6.149333,59.32
6.154667,59.28
6.16,59.19
6.165333,59.11
6.170667,59.04
6.176,58.96
6.181333,58.86
6.186667,58.82
6.192,58.9
6.197333,58.79
6.202667,58.7
6.208,58.74
6.213333,58.73
6.218667,58.82
6.224,58.8
6.229333,58.73
6.234667,58.72
6.24,58.71
6.245333,58.68
6.250667,58.63
6.256,58.62
6.261333,58.6
6.266667,58.58
6.272,58.52
6.277333,58.49
6.282667,58.55
6.288,58.57
6.293333,58.62
6.298667,58.66
6.304,58.64
6.309333,58.6
6.314667,58.64
6.32,58.61
6.325333,58.59
6.330667,58.56
6.336,58.56
6.341333,58.62
6.346667,58.62
6.352,58.64
6.357333,58.63
6.362667,58.61
6.368,58.6
6.373333,58.53
6.378667,58.48
6.384,58.4
6.389333,58.37
6.394667,58.32
6.4,58.28
6.405333,58.3
6.410667,58.29
6.416,58.29
6.421333,58.26
6.426667,58.25
6.432,58.21
6.437333,58.17
6.442667,58.14
6.448,58.07
6.453333,58.05
6.458667,58.05
6.464,58
6.469333,57.96
6.474667,57.91
6.48,57.92
6.485333,57.94
6.490667,58
6.496,58.04
6.501333,58.09
6.506667,58.34
6.512,58.49
6.517333,58.52
6.522667,58.57
6.528,58.55
6.533333,58.56
6.538667,58.54
6.544,58.64
6.549333,58.63
6.554667,58.62
6.56,58.55
6.565333,58.54
6.570667,58.53
6.576,58.5
6.581333,58.49
6.586667,58.58
6.592,58.57
6.597333,58.5
6.602667,58.39
6.608,58.36
6.613333,58.28
6.618667,58.24
6.624,58.16
6.629333,58.09
6.634667,58.06
6.64,58
6.645333,57.94
6.650667,57.97
6.656,57.94
6.661333,57.91
6.666667,57.99
6.672,57.97
6.677333,57.94
6.682667,57.93
6.688,57.94
6.693333,57.92
6.698667,58
6.704,58
6.709333,58.01
6.714667,58.03
6.72,58.02
6.725333,57.98
6.730667,57.97
6.736,57.89
6.741333,57.9
6.746667,57.92
6.752,58.01
6.757333,58.09
6.762667,58.09
6.768,58.11
6.773333,58.05
6.778667,58.02
6.784,57.98
6.789333,57.93
6.794667,57.91
6.8,57.92
6.805333,57.92
6.810667,57.85
6.816,57.79
6.821333,57.77
6.826667,57.82
6.832,57.79
6.837333,57.79
6.842667,57.75
6.848,57.75
6.853333,57.8
6.858667,57.81
6.864,57.92
6.869333,57.9
6.874667,57.86
6.88,57.91
6.885333,57.89
6.890667,57.84
6.896,57.83
6.901333,57.81
6.906667,57.74
6.912,57.67
6.917333,57.6
6.922667,57.58
6.928,57.66
6.933333,57.61
6.938667,57.58
6.944,57.54
6.949333,57.49
6.954667,57.47
6.96,57.46
6.965333,57.53
6.970667,57.51
6.976,57.55
6.981333,57.54
6.986667,57.47
6.992,57.52
6.997333,57.48
7.002667,57.47
7.008,57.43
7.013333,57.5
7.018667,57.44
7.024,57.39
7.029333,57.41
7.034667,57.33
7.04,57.29
7.045333,57.22
7.050667,57.19
7.056,57.21
7.061333,57.17
7.066667,57.17
7.072,57.13
7.077333,57.09
7.082667,57.07
7.088,57.07
7.093333,57.07
7.098667,57
7.104,56.94
7.109333,56.98
7.114667,57.01
7.12,57.02
7.125333,57.17
7.130667,57.23
7.136,57.31
7.141333,57.41
7.146667,57.43
7.152,57.46
7.157333,57.54
7.162667,57.58
7.168,57.55
7.173333,57.55
7.178667,57.6
7.184,57.72
7.189333,57.72
7.194667,57.68
7.2,57.64
7.205333,57.56
7.210667,57.52
7.216,57.54
7.221333,57.53
7.226667,57.49
7.232,57.49
7.237333,57.46
7.242667,57.55
7.248,57.56
7.253333,57.56
7.258667,57.49
7.264,57.6
7.269333,57.57
7.274667,57.55
7.28,57.55
7.285333,57.51
7.290667,57.56
7.296,57.59
7.301333,57.55
7.306667,57.54
7.312,57.44
7.317333,57.43
7.322667,57.35
7.328,57.32
7.333333,57.22
7.338667,57.14
7.344,57.15
7.349333,57.12
7.354667,57.04
7.36,57
7.365333,56.97
7.370667,56.93
7.376,56.9
7.381333,56.85
7.386667,56.81
7.392,56.87
7.397333,56.83
7.402667,56.79
7.408,56.78
7.413333,56.77
7.418667,56.8
7.424,56.84
7.429333,56.92
7.434667,56.96
7.44,56.96
7.445333,56.96
7.450667,56.9
7.456,56.83
7.461333,56.83
7.466667,56.79
7.472,56.83
7.477333,56.88
7.482667,56.85
7.488,56.85
7.493333,56.79
7.498667,56.75
7.504,56.75
7.509333,56.76
7.514667,56.72
7.52,56.7
7.525333,56.67
7.530667,56.68
7.536,56.69
7.541333,56.7
7.546667,56.7
7.552,56.7
7.557333,56.71
7.562667,56.66
7.568,56.68
7.573333,56.7
7.578667,56.65
7.584,56.59
7.589333,56.5
7.594667,56.41
7.6,56.37
7.605333,56.33
7.610667,56.22
7.616,56.18
7.621333,56.16
7.626667,56.19
7.632,56.22
7.637333,56.2
7.642667,56.24
7.648,56.28
7.653333,56.28
7.658667,56.34
7.664,56.34
7.669333,56.32
7.674667,56.28
7.68,56.2
7.685333,56.21
7.690667,56.19
7.696,56.12
7.701333,56.14
7.706667,56.18
7.712,56.13
7.717333,56.09
7.722667,55.99
7.728,56.02
7.733333,56.03
7.738667,56.02
7.744,56.12
7.749333,56.04
7.754667,56.05
7.76,56.05
7.765333,55.99
7.770667,55.95
7.776,56.1
7.781333,56.01
7.786667,55.97
7.792,55.99
7.797333,55.96
7.802667,55.96
7.808,55.9
7.813333,55.86
7.818667,55.86
7.824,55.86
7.829333,55.84
7.834667,55.83
7.84,55.8
7.845333,55.82
7.850667,55.81
7.856,55.79
7.861333,55.7
7.866667,55.79
7.872,55.81
7.877333,55.77
7.882667,55.71
7.888,55.7
7.893333,55.65
7.898667,55.6
7.904,55.59
7.909333,55.53
7.914667,55.63
7.92,55.63
7.925333,55.77
7.930667,55.77
7.936,55.75
7.941333,55.72
7.946667,55.74
7.952,55.74
7.957333,55.76
7.962667,55.76
7.968,55.8
7.973333,55.92
7.978667,55.86
7.984,55.88
7.989333,55.82
7.994667,55.92
8,55.88
8.005333,55.9
8.010667,55.98
8.016,55.93
8.021333,55.94
8.026667,55.94
8.032,55.91
8.037333,55.9
8.042667,55.86
8.048,55.85
8.053333,55.87
8.058667,55.84
8.064,55.86
8.069333,55.8
8.074667,55.76
8.08,55.87
8.085333,55.86
8.090667,55.89
8.096,55.9
8.101333,55.9
8.106667,55.87
8.112,55.83
8.117333,55.84
8.122667,55.9
8.128,55.91
8.133333,55.89
8.138667,55.85
8.144,55.8
8.149333,55.86
8.154667,55.89
8.16,55.87
8.165333,55.85
8.170667,55.81
8.176,55.87
8.181333,55.96
8.186667,55.96
8.192,55.99
8.197333,56.02
8.202667,56.02
8.208,56.04
8.213333,56.06
8.218667,56.08
8.224,56.11
8.229333,56.07
8.234667,56.14
8.24,56.19
8.245333,56.22
8.250667,56.31
8.256,56.28
8.261333,56.34
8.266667,56.36
8.272,56.32
8.277333,56.31
8.282667,56.35
8.288,56.31
8.293333,56.24
8.298667,56.23
8.304,56.22
8.309333,56.19
8.314667,56.21
8.32,56.16
8.325333,56.14
8.330667,56.11
8.336,56.13
8.341333,56.17
8.346667,56.12
8.352,56.07
8.357333,56.12
8.362667,56.1
8.368,56.11
8.373333,56.14
8.378667,56.15
8.384,56.21
8.389333,56.35
8.394667,56.34
8.4,56.32
8.405333,56.27
8.410667,56.25
8.416,56.25
8.421333,56.29
8.426667,56.52
8.432,56.5
8.437333,56.5
8.442667,56.46
8.448,56.46
8.453333,56.43
8.458667,56.38
8.464,56.33
8.469333,56.33
8.474667,56.29
8.48,56.36
8.485333,56.36
8.490667,56.39
8.496,56.39
8.501333,56.37
8.506667,56.41
8.512,56.38
8.517333,56.3
8.522667,56.26
8.528,56.2
8.533333,56.18
8.538667,56.23
8.544,56.31
8.549333,56.31
8.554667,56.36
8.56,56.31
8.565333,56.27
8.570667,56.38
8.576,56.37
8.581333,56.38
8.586667,56.34
8.592,56.33
8.597333,56.3
8.602667,56.34
8.608,56.31
8.613333,56.25
8.618667,56.2
8.624,56.15
8.629333,56.1
8.634667,56.06
8.64,56.12
8.645333,56.05
8.650667,56.06
8.656,56.04
8.661333,56
8.666667,56.01
8.672,55.96
8.677333,55.97
8.682667,55.94
8.688,55.97
8.693333,56.03
8.698667,56.06
8.704,56.03
8.709333,56.01
8.714667,56.07
8.72,56.08
8.725333,56.05
8.730667,56.11
8.736,56.13
8.741333,56.21
8.746667,56.16
8.752,56.19
8.757333,56.24
8.762667,56.23
8.768,56.25
8.773333,56.31
8.778667,56.32
8.784,56.39
8.789333,56.38
8.794667,56.38
8.8,56.45
8.805333,56.53
8.810667,56.58
8.816,56.73
8.821333,56.8
8.826667,56.79
8.832,56.83
8.837333,56.88
8.842667,56.9
8.848,56.97
8.853333,56.98
8.858667,57.12
8.864,57.11
8.869333,57.07
8.874667,57.01
8.88,57.03
8.885333,56.96
8.890667,56.9
8.896,56.8
8.901333,56.72
8.906667,56.66
8.912,56.64
8.917333,56.57
8.922667,56.53
8.928,56.53
8.933333,56.48
8.938667,56.4
8.944,56.41
8.949333,56.38
8.954667,56.35
8.96,56.33
8.965333,56.34
8.970667,56.32
8.976,56.31
8.981333,56.41
8.986667,56.43
8.992,56.41
8.997333,56.4
9.002667,56.41
9.008,56.41
9.013333,56.39
9.018667,56.33
9.024,56.32
9.029333,56.33
9.034667,56.32
9.04,56.28
9.045333,56.23
9.050667,56.21
9.056,56.16
9.061333,56.13
9.066667,56.16
9.072,56.23
9.077333,56.25
9.082667,56.28
9.088,56.3
9.093333,56.33
9.098667,56.36
9.104,56.32
9.109333,56.37
9.114667,56.3
9.12,56.34
9.125333,56.37
9.130667,56.43
9.136,56.46
9.141333,56.48
9.146667,56.5
9.152,56.49
9.157333,56.47
9.162667,56.49
9.168,56.64
9.173333,56.64
9.178667,56.58
9.184,56.57
9.189333,56.51
9.194667,56.47
9.2,56.5
9.205333,56.5
9.210667,56.49
9.216,56.48
9.221333,56.45
9.226667,56.41
9.232,56.45
9.237333,56.45
9.242667,56.5
9.248,56.47
9.253333,56.54
9.258667,56.54
9.264,56.49
9.269333,56.45
9.274667,56.42
9.28,56.41
9.285333,56.36
9.290667,56.33
9.296,56.3
9.301333,56.28
9.306667,56.3
9.312,56.29
9.317333,56.32
9.322667,56.37
9.328,56.36
9.333333,56.41
9.338667,56.43
9.344,56.41
9.349333,56.42
9.354667,56.47
9.36,56.61
9.365333,56.58
9.370667,56.64
9.376,56.63
9.381333,56.64
9.386667,56.69
9.392,56.72
9.397333,56.76
9.402667,56.71
9.408,56.77
9.413333,56.97
9.418667,56.99
9.424,57.07
9.429333,57.23
9.434667,57.7
9.44,58.15
9.445333,58.16
9.450667,58.26
9.456,58.32
9.461333,58.29
9.466667,58.31
9.472,58.45
9.477333,58.47
9.482667,58.48
9.488,58.41
9.493333,58.36
9.498667,58.36
9.504,58.34
9.509333,58.27
9.514667,58.23
9.52,58.17
9.525333,58.21
9.530667,58.19
9.536,58.18
9.541333,58.15
9.546667,58.12
9.552,58.11
9.557333,58.15
9.562667,58.16
9.568,58.09
9.573333,58.06
9.578667,58.04
9.584,57.98
9.589333,57.97
9.594667,57.94
9.6,57.9
9.605333,57.82
9.610667,57.77
9.616,57.75
9.621333,57.71
9.626667,57.71
9.632,57.77
9.637333,57.69
9.642667,57.67
9.648,57.63
9.653333,57.6
9.658667,57.65
9.664,57.66
9.669333,57.62
9.674667,57.58
9.68,57.57
9.685333,57.54
9.690667,57.5
9.696,57.48
9.701333,57.47
9.706667,57.42
9.712,57.35
9.717333,57.36
9.722667,57.28
9.728,57.23
9.733333,57.16
9.738667,57.13
9.744,57.1
9.749333,57.14
9.754667,57.15
9.76,57.18
9.765333,57.11
9.770667,57.1
9.776,57.07
9.781333,57.08
9.786667,57.06
9.792,57.06
9.797333,57.09
9.802667,57.07
9.808,57.01
9.813333,56.96
9.818667,56.95
9.824,56.9
9.829333,56.97
9.834667,56.99
9.84,57.15
9.845333,57.16
9.850667,57.24
9.856,57.27
9.861333,57.35
9.866667,57.49
9.872,57.58
9.877333,57.64
9.882667,57.66
9.888,57.69
9.893333,57.71
9.898667,57.71
9.904,57.71
9.909333,57.75
9.914667,57.86
9.92,57.85
9.925333,57.81
9.930667,57.8
9.936,57.86
9.941333,57.83
9.946667,57.86
9.952,57.94
9.957333,58.04
9.962667,58.09
9.968,58.07
9.973333,58.06
9.978667,58.03
9.984,58.11
9.989333,58.24
9.994667,58.28
10,58.39
10.005333,58.39
10.010667,58.35
10.016,58.32
10.021333,58.28
10.026667,58.24
10.032,58.23
10.037333,58.24
10.042667,58.23
10.048,58.24
10.053333,58.18
10.058667,58.21
10.064,58.17
10.069333,58.13
10.074667,58.1
10.08,58.06
10.085333,57.99
10.090667,57.98
10.096,57.94
10.101333,57.89
10.106667,57.88
10.112,57.83
10.117333,57.81
10.122667,57.79
10.128,57.76
10.133333,57.68
10.138667,57.62
10.144,57.53
10.149333,57.47
10.154667,57.38
10.16,57.31
10.165333,57.26
10.170667,57.22
10.176,57.19
10.181333,57.24
10.186667,57.23
10.192,57.2
10.197333,57.22
10.202667,57.19
10.208,57.18
10.213333,57.15
10.218667,57.08
10.224,57.07
10.229333,57.05
10.234667,57.06
10.24,57.04
10.245333,57.03
10.250667,56.99
10.256,57.01
10.261333,56.99
10.266667,57.07
10.272,57.09
10.277333,57.07
10.282667,57.17
10.288,57.23
10.293333,57.24
10.298667,57.21
10.304,57.17
10.309333,57.13
10.314667,57.09
10.32,57.05
10.325333,57.03
10.330667,57.02
10.336,57.02
10.341333,57.05
10.346667,57.07
10.352,57.05
10.357333,56.96
10.362667,56.95
10.368,56.98
10.373333,56.97
10.378667,56.97
10.384,56.99
10.389333,57.17
10.394667,57.19
10.4,57.2
10.405333,57.24
10.410667,57.3
10.416,57.43
10.421333,57.41
10.426667,57.38
10.432,57.36
10.437333,57.47
10.442667,57.52
10.448,57.63
10.453333,57.76
10.458667,57.83
10.464,57.86
10.469333,57.85
10.474667,57.79
10.48,57.75
10.485333,57.73
10.490667,57.8
10.496,57.77
10.501333,57.75
10.506667,57.83
10.512,57.86
10.517333,57.92
10.522667,58.08
10.528,58.08
10.533333,58.11
10.538667,58.15
10.544,58.11
10.549333,58.08
10.554667,58.04
10.56,57.96
10.565333,57.93
10.570667,57.99
10.576,57.98
10.581333,57.91
10.586667,57.87
10.592,57.89
10.597333,57.88
10.602667,57.82
10.608,57.85
10.613333,57.87
10.618667,58.01
10.624,58.03
10.629333,58.06
10.634667,58.06
10.64,58.06
10.645333,58.11
10.650667,58.19
10.656,58.18
10.661333,58.26
10.666667,58.34
10.672,58.4
10.677333,58.43
10.682667,58.56
10.688,58.63
10.693333,58.71
10.698667,58.76
10.704,58.77
10.709333,58.77
10.714667,58.75
10.72,58.72
10.725333,58.64
10.730667,58.6
10.736,58.6
10.741333,58.55
10.746667,58.48
10.752,58.45
10.757333,58.37
10.762667,58.4
10.768,58.36
10.773333,58.37
10.778667,58.37
10.784,58.35
10.789333,58.43
10.794667,58.42
10.8,58.4
10.805333,58.4
10.810667,58.35
10.816,58.29
10.821333,58.25
10.826667,58.28
10.832,58.32
10.837333,58.29
10.842667,58.31
10.848,58.43
10.853333,58.49
10.858667,58.68
10.864,58.74
10.869333,58.9
10.874667,58.97
10.88,59.1
10.885333,59.11
10.890667,59.19
10.896,59.16
10.901333,59.12
10.906667,59.21
10.912,59.25
10.917333,59.23
10.922667,59.15
10.928,59.14
10.933333,59.12
10.938667,59.09
10.944,59.03
10.949333,58.98
10.954667,58.92
10.96,58.93
10.965333,58.87
10.970667,58.82
10.976,58.77
10.981333,58.73
10.986667,58.67
10.992,58.58
10.997333,58.69
11.002667,58.68
11.008,58.67
11.013333,58.66
11.018667,58.71
11.024,58.8
11.029333,58.74
11.034667,58.7
11.04,58.68
11.045333,58.64
11.050667,58.62
11.056,58.58
11.061333,58.59
11.066667,58.55
11.072,58.53
11.077333,58.47
11.082667,58.43
11.088,58.42
11.093333,58.38
11.098667,58.3
11.104,58.25
11.109333,58.2
11.114667,58.15
11.12,58.08
11.125333,58.04
11.130667,57.97
11.136,57.88
11.141333,57.8
11.146667,57.77
11.152,57.83
11.157333,57.84
11.162667,57.84
11.168,57.94
11.173333,58.3
11.178667,58.4
11.184,58.53
11.189333,58.52
11.194667,58.53
11.2,58.54
11.205333,58.57
11.210667,58.67
11.216,58.66
11.221333,58.72
11.226667,58.73
11.232,58.81
11.237333,58.8
11.242667,58.8
11.248,58.78
11.253333,58.76
11.258667,58.75
11.264,58.77
11.269333,58.78
11.274667,58.73
11.28,58.7
11.285333,58.65
11.290667,58.7
11.296,58.73
11.301333,58.76
11.306667,58.77
11.312,58.8
11.317333,58.96
11.322667,59.13
11.328,59.15
11.333333,59.12
11.338667,59.22
11.344,59.16
11.349333,59.16
11.354667,59.19
11.36,59.14
11.365333,59.1
11.370667,59.05
11.376,59
11.381333,58.9
11.386667,58.79
11.392,58.75
11.397333,58.71
11.402667,58.64
11.408,58.53
11.413333,58.48
11.418667,58.49
11.424,58.6
11.429333,58.71
11.434667,58.8
11.44,58.78
11.445333,58.76
11.450667,58.72
11.456,58.74
11.461333,58.75
11.466667,58.75
11.472,58.73
11.477333,58.77
11.482667,58.72
11.488,58.78
11.493333,58.85
11.498667,58.93
11.504,59.01
11.509333,59
11.514667,59.01
11.52,59.12
11.525333,59.17
11.530667,59.24
11.536,59.21
11.541333,59.16
11.546667,59.15
11.552,59.17
11.557333,59.2
11.562667,59.21
11.568,59.17
11.573333,59.11
11.578667,59.07
11.584,59.01
11.589333,58.96
11.594667,58.95
11.6,59.11
11.605333,59.14
11.610667,59.27
11.616,59.36
11.621333,59.37
11.626667,59.47
11.632,59.52
11.637333,59.46
11.642667,59.45
11.648,59.43
11.653333,59.48
11.658667,59.48
11.664,59.58
11.669333,59.64
11.674667,59.59
11.68,59.56
11.685333,59.51
11.690667,59.46
11.696,59.42
11.701333,59.36
11.706667,59.32
11.712,59.24
11.717333,59.22
11.722667,59.19
11.728,59.17
11.733333,59.16
11.738667,59.15
11.744,59.09
11.749333,59
11.754667,58.96
11.76,58.9
11.765333,58.9
11.770667,58.86
11.776,58.84
11.781333,58.82
11.786667,58.75
11.792,58.76
11.797333,58.76
11.802667,58.77
11.808,58.69
11.813333,58.66
11.818667,58.66
11.824,58.64
11.829333,58.57
11.834667,58.54
11.84,58.46
11.845333,58.37
11.850667,58.34
11.856,58.3
11.861333,58.28
11.866667,58.25
11.872,58.19
11.877333,58.08
11.882667,58
11.888,57.95
11.893333,57.85
11.898667,57.76
11.904,57.68
11.909333,57.59
11.914667,57.56
11.92,57.52
11.925333,57.48
11.930667,57.58
11.936,58
11.941333,58.18
11.946667,58.55
11.952,58.65
11.957333,58.74
11.962667,58.78
11.968,58.88
11.973333,59.05
11.978667,59.32
11.984,59.52
11.989333,59.65
11.994667,59.73
12,59.82
12.005333,59.99
12.010667,60.1
12.016,60.19
12.021333,60.15
12.026667,60.1
12.032,60.1
12.037333,60.04
12.042667,60
12.048,60
12.053333,60
12.058667,60.09
12.064,60.15
12.069333,60.07
12.074667,59.97
12.08,59.91
12.085333,59.85
12.090667,59.8
12.096,59.69
12.101333,59.64
12.106667,59.59
12.112,59.54
12.117333,59.5
12.122667,59.58
12.128,59.6
12.133333,59.56
12.138667,59.58
12.144,59.53
12.149333,59.49
12.154667,59.41
12.16,59.44
12.165333,59.42
12.170667,59.38
12.176,59.47
12.181333,59.47
12.186667,59.49
12.192,59.43
12.197333,59.42
12.202667,59.42
12.208,59.35
12.213333,59.34
12.218667,59.33
12.224,59.31
12.229333,59.35
12.234667,59.45
12.24,59.72
12.245333,59.8
12.250667,59.78
12.256,59.81
12.261333,59.82
12.266667,59.9
12.272,59.85
12.277333,59.86
12.282667,59.87
12.288,59.92
12.293333,59.91
12.298667,60.26
12.304,60.29
12.309333,60.51
12.314667,60.68
12.32,60.89
12.325333,61.04
12.330667,61.08
12.336,61.14
12.341333,61.16
12.346667,61.17
12.352,61.2
12.357333,61.23
12.362667,61.16
12.368,61.12
12.373333,61.03
12.378667,60.94
12.384,60.87
12.389333,60.8
12.394667,60.72
12.4,60.65
12.405333,60.6
12.410667,60.54
12.416,60.5
12.421333,60.5
12.426667,60.48
12.432,60.56
12.437333,60.74
12.442667,60.82
12.448,60.82
12.453333,60.82
12.458667,60.88
12.464,60.98
12.469333,60.97
12.474667,60.93
12.48,60.93
12.485333,60.89
12.490667,60.85
12.496,60.78
12.501333,60.7
12.506667,60.61
12.512,60.57
12.517333,60.52
12.522667,60.44
12.528,60.34
12.533333,60.28
12.538667,60.24
12.544,60.23
12.549333,60.28
12.554667,60.3
12.56,60.27
12.565333,60.26
12.570667,60.25
12.576,60.24
12.581333,60.22
12.586667,60.18
12.592,60.07
12.597333,60.01
12.602667,59.94
12.608,59.88
12.613333,59.85
12.618667,59.76
12.624,59.67
12.629333,59.68
12.634667,59.61
12.64,59.57
12.645333,59.57
12.650667,59.62
12.656,59.62
12.661333,59.68
12.666667,59.74
12.672,59.74
12.677333,59.75
12.682667,59.83
12.688,59.89
12.693333,59.92
12.698667,59.92
12.704,59.97
12.709333,60.12
12.714667,60.28
12.72,60.5
12.725333,60.78
12.730667,61.07
12.736,61.32
12.741333,61.62
12.746667,61.85
12.752,62.02
12.757333,62.19
12.762667,62.38
12.768,62.59
12.773333,62.72
12.778667,62.8
12.784,62.91
12.789333,62.92
12.794667,62.9
12.8,62.83
12.805333,62.8
12.810667,62.74
12.816,62.66
12.821333,62.59
12.826667,62.54
12.832,62.54
12.837333,62.5
12.842667,62.53
12.848,62.46
12.853333,62.36
12.858667,62.29
12.864,62.18
12.869333,62.13
12.874667,62.05
12.88,61.94
12.885333,61.83
12.890667,61.74
12.896,61.7
12.901333,61.61
12.906667,61.54
12.912,61.46
12.917333,61.32
12.922667,61.21
12.928,61.12
12.933333,61.03
12.938667,60.94
12.944,60.82
12.949333,60.73
12.954667,60.65
12.96,60.6
12.965333,60.58
12.970667,60.54
12.976,60.5
12.981333,60.44
12.986667,60.34
12.992,60.31
12.997333,60.26
13.002667,60.24
13.008,60.18
13.013333,60.19
13.018667,60.11
13.024,60.04
13.029333,59.96
13.034667,59.91
13.04,59.81
13.045333,59.71
13.050667,59.64
13.056,59.63
13.061333,59.59
13.066667,59.67
13.072,59.59
13.077333,59.56
13.082667,59.53
13.088,59.54
13.093333,59.42
13.098667,59.29
13.104,59.2
13.109333,59.21
13.114667,59.15
13.12,59.1
13.125333,59.01
13.130667,58.93
13.136,58.86
13.141333,58.79
13.146667,58.7
13.152,58.6
13.157333,58.5
13.162667,58.45
13.168,58.36
13.173333,58.29
13.178667,58.22
13.184,58.13
13.189333,58.04
13.194667,58.07
13.2,58.02
13.205333,57.98
13.210667,57.86
13.216,57.77
13.221333,57.76
13.226667,57.77
13.232,57.72
13.237333,57.72
13.242667,57.63
13.248,57.58
13.253333,57.55
13.258667,57.49
13.264,58.09
13.269333,58.08
13.274667,58.07
13.28,58.12
13.285333,58.14
13.290667,58.09
13.296,58.07
13.301333,57.99
13.306667,57.96
13.312,58.14
13.317333,58.15
13.322667,58.07
13.328,58.06
13.333333,58.02
13.338667,57.99
13.344,57.97
13.349333,57.84
13.354667,57.78
13.36,57.74
13.365333,57.76
13.370667,57.83
13.376,57.89
13.381333,57.91
13.386667,57.98
13.392,58
13.397333,58.09
13.402667,58.02
13.408,58.03
13.413333,57.96
13.418667,58.01
13.424,57.98
13.429333,57.99
13.434667,58.05
13.44,58
13.445333,57.93
13.450667,57.84
13.456,57.79
13.461333,57.73
13.466667,57.67
13.472,57.67
13.477333,57.64
13.482667,57.64
13.488,57.68
13.493333,57.78
13.498667,57.79
13.504,57.81
13.509333,57.82
13.514667,57.94
13.52,58.02
13.525333,58.21
13.530667,58.18
13.536,58.24
13.541333,58.33
13.546667,58.41
13.552,58.53
13.557333,58.55
13.562667,58.56
13.568,58.52
13.573333,58.59
13.578667,58.55
13.584,58.58
13.589333,58.52
13.594667,58.51
13.6,58.51
13.605333,58.5
13.610667,58.4
13.616,58.35
13.621333,58.32
13.626667,58.27
13.632,58.32
13.637333,58.3
13.642667,58.34
13.648,58.25
13.653333,58.23
13.658667,58.15
13.664,58.05
13.669333,57.96
13.674667,57.91
13.68,57.82
13.685333,57.75
13.690667,57.63
13.696,57.58
13.701333,57.53
13.706667,57.5
13.712,57.42
13.717333,57.39
13.722667,57.3
13.728,57.29
13.733333,57.22
13.738667,57.18
13.744,57.26
13.749333,57.3
13.754667,57.3
13.76,57.36
13.765333,57.35
13.770667,57.35
13.776,57.4
13.781333,57.45
13.786667,57.51
13.792,57.46
13.797333,57.45
13.802667,57.51
13.808,57.62
13.813333,57.72
13.818667,57.73
13.824,57.91
13.829333,57.96
13.834667,57.93
13.84,57.97
13.845333,57.95
13.850667,57.95
13.856,57.93
13.861333,57.93
13.866667,57.88
13.872,57.86
13.877333,57.83
13.882667,57.76
13.888,57.73
13.893333,57.65
13.898667,57.56
13.904,57.5
13.909333,57.46
13.914667,57.46
13.92,57.53
13.925333,57.47
13.930667,57.49
13.936,57.47
13.941333,57.5
13.946667,57.6
13.952,57.66
13.957333,57.65
13.962667,57.57
13.968,57.58
13.973333,57.58
13.978667,57.59
13.984,57.55
13.989333,57.52
13.994667,57.53
14,57.47
14.005333,57.46
14.010667,57.37
14.016,57.35
14.021333,57.37
14.026667,57.35
14.032,57.36
14.037333,57.3
14.042667,57.28
14.048,57.21
14.053333,57.17
14.058667,57.1
14.064,57.04
14.069333,57.05
14.074667,57.08
14.08,57.13
14.085333,57.42
14.090667,57.55
14.096,57.74
14.101333,57.7
14.106667,57.66
14.112,57.59
14.117333,57.48
14.122667,57.43
14.128,57.43
14.133333,57.36
14.138667,57.3
14.144,57.27
14.149333,57.24
14.154667,57.2
14.16,57.14
14.165333,57.1
14.170667,57.01
14.176,56.93
14.181333,56.86
14.186667,56.84
14.192,56.8
14.197333,56.8
14.202667,56.71
14.208,56.69
14.213333,56.6
14.218667,56.61
14.224,56.56
14.229333,56.49
14.234667,56.4
14.24,56.34
14.245333,56.31
14.250667,56.3
14.256,56.31
14.261333,56.32
14.266667,56.26
14.272,56.25
14.277333,56.26
14.282667,56.28
14.288,56.22
14.293333,56.2
14.298667,56.17
14.304,56.12
14.309333,56.08
14.314667,56.06
14.32,56.03
14.325333,56.07
14.330667,56.03
14.336,56.01
14.341333,55.98
14.346667,56.04
14.352,56.22
14.357333,56.22
14.362667,56.22
14.368,56.32
14.373333,56.26
14.378667,56.37
14.384,56.36
14.389333,56.35
14.394667,56.45
14.4,56.54
14.405333,56.6
14.410667,56.65
14.416,56.66
14.421333,56.67
14.426667,56.7
14.432,56.72
14.437333,56.7
14.442667,56.64
14.448,56.65
14.453333,56.66
14.458667,56.65
14.464,56.6
14.469333,56.56
14.474667,56.58
14.48,56.58
14.485333,56.59
14.490667,56.58
14.496,56.53
14.501333,56.54
14.506667,56.55
14.512,56.55
14.517333,56.54
14.522667,56.49
14.528,56.47
14.533333,56.43
14.538667,56.51
14.544,56.46
14.549333,56.39
14.554667,56.37
14.56,56.31
14.565333,56.27
14.570667,56.27
14.576,56.26
14.581333,56.27
14.586667,56.29
14.592,56.33
14.597333,56.27
14.602667,56.29
14.608,56.33
14.613333,56.26
14.618667,56.21
14.624,56.18
14.629333,56.22
14.634667,56.16
14.64,56.22
14.645333,56.33
14.650667,56.27
14.656,56.33
14.661333,56.31
14.666667,56.38
14.672,56.45
14.677333,56.68
14.682667,56.88
14.688,56.82
14.693333,56.96
14.698667,56.97
14.704,57
14.709333,57
14.714667,57.05
14.72,57
14.725333,56.94
14.730667,56.96
14.736,57.01
14.741333,57.02
14.746667,57.06
14.752,57.03
14.757333,57.14
14.762667,57.21
14.768,57.19
14.773333,57.25
14.778667,57.44
14.784,57.74
14.789333,57.82
14.794667,57.97
14.8,58.04
14.805333,57.96
14.810667,57.93
14.816,57.96
14.821333,57.9
14.826667,57.87
14.832,57.83
14.837333,57.84
14.842667,59.32
14.848,59.35
14.853333,59.35
14.858667,59.76
14.864,59.96
14.869333,59.95
14.874667,60
14.88,59.91
14.885333,59.89
14.890667,59.82
14.896,59.73
14.901333,59.61
14.906667,59.54
14.912,59.54
14.917333,59.48
14.922667,59.37
14.928,59.28
14.933333,59.24
14.938667,59.24
14.944,59.16
14.949333,59.16
14.954667,59.1
14.96,59.01
14.965333,58.95
14.970667,58.86
14.976,58.79
14.981333,58.69
14.986667,58.63
14.992,58.55
14.997333,58.5
15.002667,58.46
15.008,58.48
15.013333,58.49
15.018667,58.48
15.024,58.45
15.029333,58.43
15.034667,58.4
15.04,58.37
15.045333,58.46
15.050667,58.46
15.056,58.38
15.061333,58.35
15.066667,58.28
15.072,58.25
15.077333,58.2
15.082667,58.22
15.088,58.15
15.093333,58.07
15.098667,58.06
15.104,58.03
15.109333,57.96
15.114667,57.98
15.12,57.87
15.125333,57.79
15.130667,57.76
15.136,57.75
15.141333,57.77
15.146667,57.84
15.152,57.76
15.157333,57.77
15.162667,57.77
15.168,57.78
15.173333,57.78
15.178667,57.74
15.184,57.69
15.189333,57.69
15.194667,57.75
15.2,57.76
15.205333,57.71
15.210667,57.72
15.216,57.71
15.221333,57.67
15.226667,57.69
15.232,57.65
15.237333,57.54
15.242667,57.5
15.248,57.49
15.253333,57.47
15.258667,57.43
15.264,57.34
15.269333,57.36
15.274667,57.35
15.28,57.3
15.285333,57.29
15.290667,57.22
15.296,57.26
15.301333,57.22
15.306667,57.15
15.312,57.1
15.317333,57.04
15.322667,56.97
15.328,56.9
15.333333,56.88
15.338667,56.87
15.344,56.86
15.349333,56.84
15.354667,56.79
15.36,56.72
15.365333,56.75
15.370667,56.68
15.376,56.67
15.381333,56.64
15.386667,56.66
15.392,56.6
15.397333,56.67
15.402667,56.71
15.408,56.7
15.413333,56.79
15.418667,56.8
15.424,56.83
15.429333,56.82
15.434667,56.87
15.44,56.92
15.445333,56.95
15.450667,57.07
15.456,57.09
15.461333,57.09
15.466667,57.03
15.472,57.03
15.477333,57.09
15.482667,57.07
15.488,57.08
15.493333,57.09
15.498667,57.19
15.504,57.2
15.509333,57.18
15.514667,57.19
15.52,57.24
15.525333,57.24
15.530667,57.37
15.536,57.52
15.541333,57.54
15.546667,57.55
15.552,57.62
15.557333,57.75
15.562667,57.94
15.568,58.09
15.573333,58.3
15.578667,58.4
15.584,58.54
15.589333,58.65
15.594667,58.78
15.6,58.9
15.605333,59
15.610667,59.1
15.616,59.22
15.621333,59.32
15.626667,59.32
15.632,59.33
15.637333,59.37
15.642667,59.37
15.648,59.29
15.653333,59.19
15.658667,59.16
15.664,59.05
15.669333,58.93
15.674667,58.93
15.68,58.84
15.685333,58.82
15.690667,58.77
15.696,58.74
15.701333,58.71
15.706667,58.62
15.712,58.53
15.717333,58.56
15.722667,58.58
15.728,58.49
15.733333,58.42
15.738667,58.31
15.744,58.22
15.749333,58.14
15.754667,58.1
15.76,58.05
15.765333,57.95
15.770667,57.87
15.776,57.88
15.781333,57.86
15.786667,57.82
15.792,57.86
15.797333,57.89
15.802667,57.86
15.808,57.78
15.813333,57.87
15.818667,57.85
15.824,57.82
15.829333,57.9
15.834667,57.82
15.84,57.79
15.845333,57.77
15.850667,57.69
15.856,57.63
15.861333,57.58
15.866667,57.51
15.872,57.54
15.877333,57.45
15.882667,57.49
15.888,57.59
15.893333,57.55
15.898667,57.59
15.904,57.57
15.909333,57.57
15.914667,57.49
15.92,57.47
15.925333,57.41
15.930667,57.41
15.936,57.37
15.941333,57.32
15.946667,57.24
15.952,57.21
15.957333,57.21
15.962667,57.17
15.968,57.19
15.973333,57.33
15.978667,57.29
15.984,57.26
15.989333,57.25
15.994667,57.18
16,57.19
16.005333,57.18
16.010667,57.13
16.016,57.18
16.021333,57.17
16.026667,57.15
16.032,57.13
16.037333,57.07
16.042667,57.05
16.048,57.03
16.053333,57.01
16.058667,56.92
16.064,56.88
16.069333,56.91
16.074667,56.91
16.08,56.97
16.085333,56.91
16.090667,56.92
16.096,56.87
16.101333,56.86
16.106667,56.94
16.112,57.02
16.117333,56.99
16.122667,57.04
16.128,57.01
16.133333,56.97
16.138667,56.95
16.144,56.95
16.149333,56.99
16.154667,57.04
16.16,57.08
16.165333,57.07
16.170667,57.05
16.176,57.06
16.181333,57.17
16.186667,57.26
16.192,57.35
16.197333,57.39
16.202667,57.5
16.208,57.51
16.213333,57.53
16.218667,57.59
16.224,57.53
16.229333,57.53
16.234667,57.51
16.24,57.59
16.245333,57.55
16.250667,57.6
16.256,57.62
16.261333,57.72
16.266667,57.82
16.272,57.77
16.277333,57.76
16.282667,57.76
16.288,57.74
16.293333,57.75
16.298667,57.79
16.304,57.84
16.309333,57.93
16.314667,57.91
16.32,57.9
16.325333,57.85
16.330667,57.83
16.336,58.04
16.341333,58.01
16.346667,57.95
16.352,57.96
16.357333,58
16.362667,57.95
16.368,57.93
16.373333,57.84
16.378667,57.82
16.384,57.76
16.389333,57.76
16.394667,57.76
16.4,57.73
16.405333,57.69
16.410667,57.62
16.416,57.56
16.421333,57.57
16.426667,57.62
16.432,57.6
16.437333,57.62
16.442667,57.57
16.448,57.48
16.453333,57.46
16.458667,57.44
16.464,57.36
16.469333,57.3
16.474667,57.3
16.48,57.33
16.485333,57.44
16.490667,57.44
16.496,57.37
16.501333,57.33
16.506667,57.33
16.512,57.27
16.517333,57.31
16.522667,57.38
16.528,57.4
16.533333,57.37
16.538667,57.32
16.544,57.3
16.549333,57.26
16.554667,57.27
16.56,57.25
16.565333,57.16
16.570667,57.11
16.576,57.17
16.581333,57.35
16.586667,57.43
16.592,57.45
16.597333,57.49
16.602667,57.51
16.608,57.62
16.613333,57.65
16.618667,57.69
16.624,57.62
16.629333,57.57
16.634667,57.52
16.64,57.48
16.645333,57.47
16.650667,57.54
16.656,57.52
16.661333,57.57
16.666667,57.6
16.672,57.6
16.677333,57.64
16.682667,57.59
16.688,57.61
16.693333,57.61
16.698667,57.57
16.704,57.58
16.709333,57.56
16.714667,57.58
16.72,57.59
16.725333,57.59
16.730667,57.66
16.736,57.62
16.741333,57.62
16.746667,57.59
16.752,57.52
16.757333,57.49
16.762667,57.45
16.768,57.35
16.773333,57.29
16.778667,57.29
16.784,57.23
16.789333,57.23
16.794667,57.23
16.8,57.16
16.805333,57.15
16.810667,57.11
16.816,57.09
16.821333,57
16.826667,56.91
16.832,56.96
16.837333,56.95
16.842667,56.89
16.848,56.85
16.853333,56.93
16.858667,56.94
16.864,56.95
16.869333,56.99
16.874667,57.06
16.88,57.08
16.885333,57.15
16.890667,57.18
16.896,57.11
16.901333,57.08
16.906667,57.08
16.912,57.07
16.917333,57.04
16.922667,57.13
16.928,57.14
16.933333,57.1
16.938667,57.12
16.944,57.09
16.949333,57.08
16.954667,57.06
16.96,57.09
16.965333,57.12
16.970667,57.21
16.976,57.24
16.981333,57.23
16.986667,57.19
16.992,57.19
16.997333,57.23
17.002667,57.21
17.008,57.15
17.013333,57.12
17.018667,57.11
17.024,57.07
17.029333,57.12
17.034667,57.13
17.04,57.22
17.045333,57.3
17.050667,57.33
17.056,57.4
17.061333,57.4
17.066667,57.44
17.072,57.37
17.077333,57.37
17.082667,57.45
17.088,57.43
17.093333,57.36
17.098667,57.47
17.104,57.4
17.109333,57.43
17.114667,57.45
17.12,57.45
17.125333,57.41
17.130667,57.46
17.136,57.48
17.141333,57.47
17.146667,57.41
17.152,57.35
17.157333,57.38
17.162667,57.38
17.168,57.4
17.173333,57.39
17.178667,57.45
17.184,57.4
17.189333,57.38
17.194667,57.38
17.2,57.36
17.205333,57.45
17.210667,57.5
17.216,57.45
17.221333,57.4
17.226667,57.4
17.232,57.41
17.237333,57.4
17.242667,57.36
17.248,57.35
17.253333,57.25
17.258667,57.18
17.264,57.24
17.269333,57.2
17.274667,57.15
17.28,57.14
17.285333,57.19
17.290667,57.23
17.296,57.29
17.301333,57.29
17.306667,57.34
17.312,57.42
17.317333,57.38
17.322667,57.37
17.328,57.32
17.333333,57.29
17.338667,57.3
17.344,57.23
17.349333,57.23
17.354667,57.25
17.36,57.23
17.365333,57.21
17.370667,57.19
17.376,57.24
17.381333,57.21
17.386667,57.12
17.392,57.09
17.397333,57.07
17.402667,57.08
17.408,57.05
17.413333,57.05
17.418667,57.07
17.424,57.08
17.429333,57.16
17.434667,57.13
17.44,57.13
17.445333,57.08
17.450667,57.1
17.456,57.08
17.461333,57.13
17.466667,57.18
17.472,57.17
17.477333,57.21
17.482667,57.2
17.488,57.14
17.493333,57.06
17.498667,57.1
17.504,57.08
17.509333,57.05
17.514667,57.02
17.52,57.02
17.525333,56.98
17.530667,56.97
17.536,56.99
17.541333,57.01
17.546667,56.98
17.552,56.95
17.557333,57.02
17.562667,57.04
17.568,57.15
17.573333,57.21
17.578667,57.22
17.584,57.27
17.589333,57.3
17.594667,57.31
17.6,57.33
17.605333,57.37
17.610667,57.37
17.616,57.3
17.621333,57.37
17.626667,57.41
17.632,57.37
17.637333,57.36
17.642667,57.35
17.648,57.34
17.653333,57.37
17.658667,57.38
17.664,57.39
17.669333,57.36
17.674667,57.37
17.68,57.44
17.685333,57.43
17.690667,57.51
17.696,57.55
17.701333,57.56
17.706667,57.58
17.712,57.68
17.717333,57.65
17.722667,57.72
17.728,57.74
17.733333,57.76
17.738667,57.85
17.744,57.79
17.749333,57.91
17.754667,57.92
17.76,57.89
17.765333,57.84
17.770667,57.88
17.776,57.86
17.781333,57.84
17.786667,57.84
17.792,57.85
17.797333,57.81
17.802667,57.88
17.808,57.84
17.813333,57.78
17.818667,57.78
17.824,57.82
17.829333,57.9
17.834667,57.86
17.84,57.78
17.845333,57.75
17.850667,57.73
17.856,57.72
17.861333,57.74
17.866667,57.7
17.872,57.73
17.877333,57.78
17.882667,57.88
17.888,57.85
17.893333,57.8
17.898667,57.77
17.904,57.79
17.909333,57.86
17.914667,57.91
17.92,57.86
17.925333,57.89
17.930667,57.9
17.936,57.87
17.941333,57.88
17.946667,57.81
17.952,57.83
17.957333,57.78
17.962667,57.93
17.968,57.9
17.973333,57.89
17.978667,57.99
17.984,57.94
17.989333,57.9
17.994667,57.9
18,57.82
18.005333,57.87
18.010667,57.98
18.016,58.11
18.021333,58.13
18.026667,58.11
18.032,58.06
18.037333,58.02
18.042667,58.06
18.048,58.11
18.053333,58.13
18.058667,58.08
18.064,58.16
18.069333,58.16
18.074667,58.2
18.08,58.24
18.085333,58.21
18.090667,58.23
18.096,58.19
18.101333,58.16
18.106667,58.11
18.112,58.13
18.117333,58.16
18.122667,58.14
18.128,58.11
18.133333,58.09
18.138667,57.97
18.144,57.95
18.149333,57.92
18.154667,57.92
18.16,57.94
18.165333,57.91
18.170667,57.83
18.176,57.8
18.181333,57.74
18.186667,57.71
18.192,57.68
18.197333,57.68
18.202667,57.69
18.208,57.68
18.213333,57.74
18.218667,57.77
18.224,57.76
18.229333,57.82
18.234667,57.9
18.24,58
18.245333,58.03
18.250667,58.11
18.256,58.11
18.261333,58.13
18.266667,58.14
18.272,58.12
18.277333,58.09
18.282667,58.1
18.288,58.15
18.293333,58.16
18.298667,58.22
18.304,58.14
18.309333,58.16
18.314667,58.12
18.32,58.1
18.325333,58.08
18.330667,58.04
18.336,57.98
18.341333,57.95
18.346667,57.91
18.352,57.87
18.357333,57.8
18.362667,57.8
18.368,57.85
18.373333,57.83
18.378667,57.8
18.384,57.78
18.389333,57.75
18.394667,57.7
18.4,57.65
18.405333,57.63
18.410667,57.7
18.416,57.65
18.421333,57.67
18.426667,57.76
18.432,57.79
18.437333,57.79
18.442667,57.75
18.448,57.72
18.453333,57.69
18.458667,57.63
18.464,57.64
18.469333,57.62
18.474667,57.77
18.48,57.83
18.485333,57.94
18.490667,57.93
18.496,57.97
18.501333,58.07
18.506667,58.05
18.512,58.02
18.517333,58.01
18.522667,57.91
18.528,57.86
18.533333,57.84
18.538667,57.76
18.544,57.77
18.549333,57.73
18.554667,57.74
18.56,57.76
18.565333,57.88
18.570667,57.97
18.576,58.05
18.581333,58
18.586667,58.07
18.592,58.05
18.597333,58.12
18.602667,58.23
18.608,58.2
18.613333,58.14
18.618667,58.17
18.624,58.23
18.629333,58.35
18.634667,58.52
18.64,58.44
18.645333,58.39
18.650667,58.32
18.656,58.26
18.661333,58.2
18.666667,58.19
18.672,58.16
18.677333,58.11
18.682667,58.09
18.688,58.04
18.693333,58.01
18.698667,57.96
18.704,57.93
18.709333,57.85
18.714667,57.77
18.72,57.81
18.725333,57.8
18.730667,57.77
18.736,57.7
18.741333,57.67
18.746667,57.62
18.752,57.62
18.757333,57.67
18.762667,57.82
18.768,57.96
18.773333,58.16
18.778667,58.33
18.784,58.47
18.789333,58.52
18.794667,58.54
18.8,58.5
18.805333,58.53
18.810667,58.49
18.816,58.43
18.821333,58.43
18.826667,58.4
18.832,58.42
18.837333,58.4
18.842667,58.36
18.848,58.36
18.853333,58.33
18.858667,58.35
18.864,58.32
18.869333,58.26
18.874667,58.22
18.88,58.15
18.885333,58.13
18.890667,58.07
18.896,58.07
18.901333,57.99
18.906667,57.99
18.912,57.94
18.917333,57.93
18.922667,57.85
18.928,57.82
18.933333,57.73
18.938667,57.77
18.944,57.73
18.949333,57.7
18.954667,57.63
18.96,57.59
18.965333,57.52
18.970667,57.47
18.976,57.43
18.981333,57.36
18.986667,57.37
18.992,57.43
18.997333,57.41
19.002667,57.5
19.008,57.48
19.013333,57.48
19.018667,57.57
19.024,57.53
19.029333,57.64
19.034667,57.64
19.04,57.6
19.045333,57.59
19.050667,57.55
19.056,57.49
19.061333,57.47
19.066667,57.5
19.072,57.5
19.077333,57.47
19.082667,57.45
19.088,57.43
19.093333,57.45
19.098667,57.49
19.104,57.44
19.109333,57.47
19.114667,57.43
19.12,57.43
19.125333,57.49
19.130667,57.5
19.136,57.48
19.141333,57.39
19.146667,57.44
19.152,57.39
19.157333,57.36
19.162667,57.41
19.168,57.45
19.173333,57.38
19.178667,57.28
19.184,57.27
19.189333,57.23
19.194667,57.26
19.2,57.16
19.205333,57.19
19.210667,57.14
19.216,57.12
19.221333,57.08
19.226667,57.08
19.232,57.06
19.237333,57.02
19.242667,57
19.248,56.97
19.253333,56.96
19.258667,56.92
19.264,57.06
19.269333,57.06
19.274667,57.02
19.28,57
19.285333,56.94
19.290667,56.91
19.296,56.94
19.301333,56.91
19.306667,56.9
19.312,56.83
19.317333,56.77
19.322667,56.72
19.328,56.72
19.333333,56.64
19.338667,56.65
19.344,56.6
19.349333,56.5
19.354667,56.48
19.36,56.46
19.365333,56.43
19.370667,56.43
19.376,56.37
19.381333,56.33
19.386667,56.29
19.392,56.3
19.397333,56.34
19.402667,56.28
19.408,56.29
19.413333,56.28
19.418667,56.34
19.424,56.4
19.429333,56.38
19.434667,56.4
19.44,56.51
19.445333,56.53
19.450667,56.49
19.456,56.47
19.461333,56.58
19.466667,56.61
19.472,56.69
19.477333,56.71
19.482667,56.71
19.488,56.74
19.493333,56.74
19.498667,56.7
19.504,56.7
19.509333,56.68
19.514667,56.58
19.52,56.57
19.525333,56.52
19.530667,56.46
19.536,56.5
19.541333,56.43
19.546667,56.43
19.552,56.47
19.557333,56.46
19.562667,56.37
19.568,56.34
19.573333,56.33
19.578667,56.3
19.584,56.37
19.589333,56.32
19.594667,56.27
19.6,56.23
19.605333,56.26
19.610667,56.25
19.616,56.22
19.621333,56.2
19.626667,56.16
19.632,56.16
19.637333,56.13
19.642667,56.16
19.648,56.17
19.653333,56.18
19.658667,56.17
19.664,56.15
19.669333,56.14
19.674667,56.16
19.68,56.19
19.685333,56.16
19.690667,56.18
19.696,56.2
19.701333,56.15
19.706667,56.1
19.712,56.04
19.717333,56.02
19.722667,55.98
19.728,56.06
19.733333,56.09
19.738667,56.15
19.744,56.22
19.749333,56.28
19.754667,56.32
19.76,56.26
19.765333,56.28
19.770667,56.31
19.776,56.32
19.781333,56.31
19.786667,56.29
19.792,56.25
19.797333,56.27
19.802667,56.21
19.808,56.2
19.813333,56.22
19.818667,56.24
19.824,56.27
19.829333,56.26
19.834667,56.31
19.84,56.31
19.845333,56.36
19.850667,56.27
19.856,56.2
19.861333,56.16
19.866667,56.12
19.872,56.14
19.877333,56.15
19.882667,56.12
19.888,56.17
19.893333,56.12
19.898667,56.14
19.904,56.15
19.909333,56.13
19.914667,56.11
19.92,56.08
19.925333,56.07
19.930667,56.14
19.936,56.11
19.941333,56.07
19.946667,56.18
19.952,56.17
19.957333,56.14
19.962667,56.17
19.968,56.19
19.973333,56.21
19.978667,56.37
19.984,56.34
19.989333,56.28
19.994667,56.31
20,56.29
20.005333,56.43
20.010667,56.53
20.016,56.51
20.021333,56.45
20.026667,56.42
20.032,56.37
20.037333,56.31
20.042667,56.23
20.048,56.23
20.053333,56.27
20.058667,56.34
20.064,56.33
20.069333,56.39
20.074667,56.35
20.08,56.36
20.085333,56.31
20.090667,56.23
20.096,56.18
20.101333,56.21
20.106667,56.25
20.112,56.25
20.117333,56.15
20.122667,56.14
20.128,56.19
20.133333,56.22
20.138667,56.31
20.144,56.23
20.149333,56.21
20.154667,56.09
20.16,56.04
20.165333,56.16
20.170667,56.29
20.176,56.32
20.181333,56.29
20.186667,56.27
20.192,56.23
20.197333,56.23
20.202667,56.23
20.208,56.31
20.213333,56.28
20.218667,56.28
20.224,56.38
20.229333,56.35
20.234667,56.37
20.24,56.36
20.245333,56.37
20.250667,56.41
20.256,56.39
20.261333,56.36
20.266667,56.31
20.272,56.26
20.277333,56.27
20.282667,56.28
20.288,56.32
20.293333,56.3
20.298667,56.26
20.304,56.21
20.309333,56.15
20.314667,56.1
20.32,56.07
20.325333,56.03
20.330667,56
20.336,55.97
20.341333,55.86
20.346667,55.91
20.352,55.92
20.357333,55.91
20.362667,55.89
20.368,55.9
20.373333,55.86
20.378667,55.85
20.384,55.83
20.389333,55.78
20.394667,55.83
20.4,55.93
20.405333,55.91
20.410667,55.86
20.416,55.89
20.421333,55.88
20.426667,56.02
20.432,56.11
20.437333,56.13
20.442667,56.13
20.448,56.22
20.453333,56.3
20.458667,56.43
20.464,56.45
20.469333,56.45
20.474667,56.55
20.48,56.62
20.485333,56.56
20.490667,56.59
20.496,56.61
20.501333,56.69
20.506667,56.66
20.512,56.67
20.517333,56.74
20.522667,56.91
20.528,57.05
20.533333,57.23
20.538667,57.4
20.544,57.56
20.549333,57.71
20.554667,57.84
20.56,57.92
20.565333,57.98
20.570667,58.16
20.576,58.25
20.581333,58.26
20.586667,58.32
20.592,58.26
20.597333,58.18
20.602667,58.14
20.608,58.14
20.613333,58.17
20.618667,58.18
20.624,58.16
20.629333,58.19
20.634667,58.16
20.64,58.1
20.645333,58.07
20.650667,58.05
20.656,58.04
20.661333,57.99
20.666667,57.93
20.672,57.93
20.677333,57.9
20.682667,57.84
20.688,57.81
20.693333,57.73
20.698667,57.72
20.704,57.66
20.709333,57.63
20.714667,57.57
20.72,57.67
20.725333,57.68
20.730667,57.66
20.736,57.62
20.741333,57.52
20.746667,57.5
20.752,57.44
20.757333,57.42
20.762667,57.41
20.768,57.38
20.773333,57.34
20.778667,57.28
20.784,57.31
20.789333,57.36
20.794667,57.34
20.8,57.28
20.805333,57.27
20.810667,57.21
20.816,57.19
20.821333,57.17
20.826667,57.14
20.832,57.14
20.837333,57.13
20.842667,57.12
20.848,57.08
20.853333,57.01
20.858667,56.96
20.864,56.85
20.869333,56.79
20.874667,56.78
20.88,56.71
20.885333,56.71
20.890667,56.71
20.896,56.72
20.901333,56.64
20.906667,56.56
20.912,56.56
20.917333,56.51
20.922667,56.45
20.928,56.45
20.933333,56.47
20.938667,56.46
20.944,56.39
20.949333,56.38
20.954667,56.44
20.96,56.44
20.965333,56.41
20.970667,56.4
20.976,56.38
20.981333,56.35
20.986667,56.31
20.992,56.27
20.997333,56.24
21.002667,56.15
21.008,56.14
21.013333,56.06
21.018667,56.05
21.024,55.99
21.029333,55.97
21.034667,55.94
21.04,55.89
21.045333,55.85
21.050667,55.82
21.056,55.82
21.061333,55.88
21.066667,55.83
21.072,55.78
21.077333,55.69
21.082667,55.71
21.088,55.72
21.093333,55.7
21.098667,55.63
21.104,55.62
21.109333,55.58
21.114667,55.6
21.12,55.67
21.125333,55.67
21.130667,55.66
21.136,55.66
21.141333,55.79
21.146667,55.81
21.152,55.78
21.157333,55.75
21.162667,55.69
21.168,55.67
21.173333,55.68
21.178667,55.74
21.184,55.67
21.189333,55.7
21.194667,55.64
21.2,55.59
21.205333,55.53
21.210667,55.46
21.216,55.48
21.221333,55.47
21.226667,55.42
21.232,55.47
21.237333,55.51
21.242667,55.52
21.248,55.47
21.253333,55.48
21.258667,55.48
21.264,55.46
21.269333,55.41
21.274667,55.34
21.28,55.33
21.285333,55.24
21.290667,55.22
21.296,55.2
21.301333,55.15
21.306667,55.17
21.312,55.16
21.317333,55.09
21.322667,55.02
21.328,55
21.333333,55.03
21.338667,55.02
21.344,55.05
21.349333,55.18
21.354667,55.25
21.36,55.31
21.365333,55.37
21.370667,55.48
21.376,55.43
21.381333,55.44
21.386667,55.4
21.392,55.35
21.397333,55.4
21.402667,55.43
21.408,55.4
21.413333,55.41
21.418667,55.39
21.424,55.41
21.429333,55.45
21.434667,55.41
21.44,55.39
21.445333,55.34
21.450667,55.37
21.456,55.37
21.461333,55.35
21.466667,55.35
21.472,55.42
21.477333,55.37
21.482667,55.37
21.488,55.4
21.493333,55.43
21.498667,55.42
21.504,55.35
21.509333,55.32
21.514667,55.35
21.52,55.37
21.525333,55.32
21.530667,55.29
21.536,55.26
21.541333,55.17
21.546667,55.18
21.552,55.16
21.557333,55.16
21.562667,55.15
21.568,55.13
21.573333,55.12
21.578667,55.16
21.584,55.16
21.589333,55.23
21.594667,55.29
21.6,55.29
21.605333,55.35
21.610667,55.33
21.616,55.44
21.621333,55.49
21.626667,55.52
21.632,55.46
21.637333,55.51
21.642667,55.56
21.648,55.63
21.653333,55.69
21.658667,55.63
21.664,55.61
21.669333,55.62
21.674667,55.67
21.68,55.69
21.685333,55.69
21.690667,55.69
21.696,55.68
21.701333,55.65
21.706667,55.62
21.712,55.55
21.717333,55.53
21.722667,55.56
21.728,55.57
21.733333,55.52
21.738667,55.54
21.744,55.5
21.749333,55.46
21.754667,55.46
21.76,55.44
21.765333,55.55
21.770667,55.53
21.776,55.47
21.781333,55.43
21.786667,55.48
21.792,55.59
21.797333,55.55
21.802667,55.56
21.808,55.55
21.813333,55.57
21.818667,55.57
21.824,55.59
21.829333,55.58
21.834667,55.56
21.84,55.58
21.845333,55.56
21.850667,55.56
21.856,55.58
21.861333,55.55
21.866667,55.53
21.872,55.48
21.877333,55.46
21.882667,55.46
21.888,55.52
21.893333,55.56
21.898667,55.61
21.904,55.63
21.909333,55.76
21.914667,55.89
21.92,56.02
21.925333,56.11
21.930667,56.09
21.936,56.15
21.941333,56.16
21.946667,56.11
21.952,56.14
21.957333,56.15
21.962667,56.1
21.968,56.08
21.973333,56.02
21.978667,55.98
21.984,56.02
21.989333,56.12
21.994667,56.23
22,56.44
22.005333,56.65
22.010667,56.75
22.016,56.7
22.021333,56.64
22.026667,56.63
22.032,56.64
22.037333,56.66
22.042667,56.67
22.048,56.63
22.053333,56.58
22.058667,56.49
22.064,56.4
22.069333,56.42
22.074667,56.42
22.08,56.42
22.085333,56.37
22.090667,56.34
22.096,56.33
22.101333,56.32
22.106667,56.29
22.112,56.26
22.117333,56.24
22.122667,56.19
22.128,56.12
22.133333,56.07
22.138667,56.06
22.144,56.04
22.149333,56
22.154667,55.95
22.16,55.96
22.165333,56.01
22.170667,56.03
22.176,56.11
22.181333,56.15
22.186667,56.1
22.192,56.11
22.197333,56.13
22.202667,56.12
22.208,56.11
22.213333,56.08
22.218667,56.09
22.224,56.1
22.229333,56.07
22.234667,56.07
22.24,56.1
22.245333,56.05
22.250667,56.09
22.256,56.06
22.261333,56.04
22.266667,56.1
22.272,56.04
22.277333,56.03
22.282667,55.99
22.288,55.96
22.293333,56
22.298667,55.98
22.304,55.9
22.309333,55.88
22.314667,55.9
22.32,55.86
22.325333,55.88
22.330667,55.87
22.336,55.84
22.341333,55.85
22.346667,55.93
22.352,56.02
22.357333,56.19
22.362667,56.15
22.368,56.16
22.373333,56.18
22.378667,56.2
22.384,56.27
22.389333,56.34
22.394667,56.28
22.4,56.23
22.405333,56.43
22.410667,56.38
22.416,56.46
22.421333,56.5
22.426667,56.43
22.432,56.39
22.437333,56.37
22.442667,56.36
22.448,56.33
22.453333,56.25
22.458667,56.23
22.464,56.16
22.469333,56.1
22.474667,56.06
22.48,56.04
22.485333,56.14
22.490667,56.16
22.496,56.16
22.501333,56.27
22.506667,56.31
22.512,56.43
22.517333,56.43
22.522667,56.54
22.528,56.53
22.533333,56.51
22.538667,56.53
22.544,56.52
22.549333,56.47
22.554667,56.44
22.56,56.44
22.565333,56.52
22.570667,56.52
22.576,56.44
22.581333,56.44
22.586667,56.44
22.592,56.5
22.597333,56.57
22.602667,56.57
22.608,56.6
22.613333,56.58
22.618667,56.58
22.624,56.51
22.629333,56.47
22.634667,56.42
22.64,56.39
22.645333,56.34
22.650667,56.36
22.656,56.35
22.661333,56.34
22.666667,56.25
22.672,56.2
22.677333,56.21
22.682667,56.17
22.688,56.13
22.693333,56.13
22.698667,56.08
22.704,56.09
22.709333,56.07
22.714667,56.01
22.72,55.99
22.725333,55.94
22.730667,55.85
22.736,55.85
22.741333,55.84
22.746667,55.87
22.752,55.83
22.757333,55.83
22.762667,55.81
22.768,55.84
22.773333,55.85
22.778667,55.83
22.784,55.93
22.789333,56.05
22.794667,56.14
22.8,56.24
22.805333,56.33
22.810667,56.38
22.816,56.39
22.821333,56.38
22.826667,56.4
22.832,56.39
22.837333,56.52
22.842667,56.44
22.848,56.41
22.853333,56.37
22.858667,56.39
22.864,56.35
22.869333,56.3
22.874667,56.27
22.88,56.18
22.885333,56.1
22.890667,56.1
22.896,56.13
22.901333,56.1
22.906667,56.04
22.912,56.02
22.917333,56.04
22.922667,55.95
22.928,55.94
22.933333,55.92
22.938667,55.93
22.944,55.95
22.949333,55.99
22.954667,56.03
22.96,56.08
22.965333,56.06
22.970667,56.04
22.976,56.07
22.981333,56.08
22.986667,56.19
22.992,56.51
22.997333,56.62
23.002667,56.76
23.008,56.91
23.013333,56.93
23.018667,57
23.024,57.16
23.029333,57.14
23.034667,57.27
23.04,57.43
23.045333,57.4
23.050667,57.35
23.056,57.33
23.061333,57.31
23.066667,57.45
23.072,57.44
23.077333,57.51
23.082667,57.48
23.088,57.42
23.093333,57.53
23.098667,57.57
23.104,57.7
23.109333,57.85
23.114667,58
23.12,58.09
23.125333,58.3
23.130667,58.39
23.136,58.36
23.141333,58.33
23.146667,58.27
23.152,58.3
23.157333,58.27
23.162667,58.25
23.168,58.32
23.173333,58.3
23.178667,58.28
23.184,58.25
23.189333,58.3
23.194667,58.34
23.2,58.35
23.205333,58.41
23.210667,58.52
23.216,58.56
23.221333,58.53
23.226667,58.54
23.232,58.56
23.237333,58.64
23.242667,58.67
23.248,58.75
23.253333,58.71
23.258667,58.71
23.264,58.65
23.269333,58.61
23.274667,58.65
23.28,58.66
23.285333,58.62
23.290667,58.66
23.296,58.64
23.301333,58.62
23.306667,58.58
23.312,58.59
23.317333,58.55
23.322667,58.5
23.328,58.43
23.333333,58.43
23.338667,58.42
23.344,58.35
23.349333,58.42
23.354667,58.39
23.36,58.41
23.365333,58.44
23.370667,58.37
23.376,58.31
23.381333,58.32
23.386667,58.33
23.392,58.35
23.397333,58.32
23.402667,58.23
23.408,58.23
23.413333,58.19
23.418667,58.14
23.424,58.13
23.429333,58.05
23.434667,58.05
23.44,57.98
23.445333,57.97
23.450667,58.08
23.456,58.01
23.461333,58.03
23.466667,58.03
23.472,57.98
23.477333,57.98
23.482667,58.03
23.488,58.13
23.493333,58.05
23.498667,57.98
23.504,58.01
23.509333,58.13
23.514667,58.1
23.52,58.12
23.525333,58.07
23.530667,58.02
23.536,58.06
23.541333,58.01
23.546667,57.99
23.552,57.95
23.557333,57.93
23.562667,57.9
23.568,57.89
23.573333,57.93
23.578667,57.93
23.584,57.87
23.589333,57.89
23.594667,57.9
23.6,57.89
23.605333,57.87
23.610667,57.93
23.616,57.93
23.621333,57.87
23.626667,57.86
23.632,57.86
23.637333,57.77
23.642667,57.75
23.648,57.79
23.653333,57.85
23.658667,57.9
23.664,57.88
23.669333,57.92
23.674667,57.86
23.68,57.92
23.685333,57.98
23.690667,57.99
23.696,57.99
23.701333,57.98
23.706667,57.97
23.712,57.99
23.717333,58.13
23.722667,58.08
23.728,58.18
23.733333,58.26
23.738667,58.18
23.744,58.17
23.749333,58.19
23.754667,58.19
23.76,58.13
23.765333,58.08
23.770667,58.1
23.776,58.08
23.781333,58.06
23.786667,58.05
23.792,57.98
23.797333,57.94
23.802667,57.9
23.808,57.85
23.813333,57.82
23.818667,57.77
23.824,57.79
23.829333,57.75
23.834667,57.73
23.84,57.82
23.845333,57.8
23.850667,57.83
23.856,57.77
23.861333,57.81
23.866667,57.89
23.872,57.87
23.877333,57.84
23.882667,57.79
23.888,57.8
23.893333,57.79
23.898667,57.75
23.904,57.67
23.909333,57.61
23.914667,57.6
23.92,57.53
23.925333,57.5
23.930667,57.51
23.936,57.48
23.941333,57.43
23.946667,57.38
23.952,57.42
23.957333,57.44
23.962667,57.5
23.968,57.51
23.973333,57.52
23.978667,57.59
23.984,57.65
23.989333,57.63
23.994667,57.54
24,57.49
24.005333,57.45
24.010667,57.43
24.016,57.38
24.021333,57.33
24.026667,57.28
24.032,57.22
24.037333,57.17
24.042667,57.23
24.048,57.25
24.053333,57.17
24.058667,57.07
24.064,57.03
24.069333,57.03
24.074667,57.01
24.08,56.96
24.085333,56.91
24.090667,56.87
24.096,56.85
24.101333,56.8
24.106667,56.73
24.112,56.66
24.117333,56.73
24.122667,56.66
24.128,56.7
24.133333,56.62
24.138667,56.55
24.144,56.59
24.149333,56.51
24.154667,56.52
24.16,56.49
24.165333,56.49
24.170667,56.42
24.176,56.37
24.181333,56.31
24.186667,56.31
24.192,56.36
24.197333,56.43
24.202667,56.37
24.208,56.34
24.213333,56.25
24.218667,56.28
24.224,56.24
24.229333,56.24
24.234667,56.26
24.24,56.28
24.245333,56.21
24.250667,56.27
24.256,56.27
24.261333,56.21
24.266667,56.27
24.272,56.23
24.277333,56.2
24.282667,56.25
24.288,56.26
24.293333,56.21
24.298667,56.29
24.304,56.24
24.309333,56.26
24.314667,56.27
24.32,56.2
24.325333,56.22
24.330667,56.28
24.336,56.39
24.341333,56.43
24.346667,56.45
24.352,56.43
24.357333,56.41
24.362667,56.45
24.368,56.57
24.373333,56.57
24.378667,56.51
24.384,56.44
24.389333,56.44
24.394667,56.44
24.4,56.44
24.405333,56.51
24.410667,56.52
24.416,56.63
24.421333,56.62
24.426667,56.63
24.432,56.59
24.437333,56.59
24.442667,56.57
24.448,56.6
24.453333,56.59
24.458667,56.56
24.464,56.64
24.469333,56.59
24.474667,56.58
24.48,56.48
24.485333,56.42
24.490667,56.53
24.496,56.48
24.501333,56.47
24.506667,56.48
24.512,56.44
24.517333,56.52
24.522667,56.61
24.528,56.76
24.533333,56.78
24.538667,56.79
24.544,56.85
24.549333,57.04
24.554667,57.08
24.56,57.15
24.565333,57.12
24.570667,57.2
24.576,57.36
24.581333,57.45
24.586667,57.39
24.592,57.44
24.597333,57.51
24.602667,57.66
24.608,57.76
24.613333,57.82
24.618667,57.96
24.624,58
24.629333,57.98
24.634667,58.04
24.64,58.13
24.645333,58.06
24.650667,58.07
24.656,58.05
24.661333,58.03
24.666667,58.16
24.672,58.28
24.677333,58.29
24.682667,58.26
24.688,58.37
24.693333,58.5
24.698667,58.63
24.704,58.69
24.709333,58.67
24.714667,58.64
24.72,58.64
24.725333,58.72
24.730667,58.7
24.736,58.7
24.741333,58.75
24.746667,58.7
24.752,58.7
24.757333,58.88
24.762667,58.82
24.768,58.91
24.773333,58.96
24.778667,59.03
24.784,59.04
24.789333,59.02
24.794667,58.97
24.8,58.99
24.805333,58.94
24.810667,58.92
24.816,58.94
24.821333,58.93
24.826667,58.83
24.832,58.8
24.837333,58.74
24.842667,58.75
24.848,58.76
24.853333,58.7
24.858667,58.66
24.864,58.59
24.869333,58.53
24.874667,58.53
24.88,58.47
24.885333,58.48
24.890667,58.45
24.896,58.58
24.901333,58.6
24.906667,58.7
24.912,58.79
24.917333,58.87
24.922667,58.95
24.928,58.94
24.933333,58.98
24.938667,59.02
24.944,58.96
24.949333,58.9
24.954667,58.84
24.96,58.8
24.965333,58.87
24.970667,58.88
24.976,58.84
24.981333,58.77
24.986667,58.71
24.992,58.7
24.997333,58.7
25.002667,58.77
25.008,58.72
25.013333,58.68
25.018667,58.61
25.024,58.61
25.029333,58.61
25.034667,58.54
25.04,58.54
25.045333,58.46
25.050667,58.46
25.056,58.43
25.061333,58.4
25.066667,58.31
25.072,58.33
25.077333,58.32
25.082667,58.26
25.088,58.29
25.093333,58.31
25.098667,58.31
25.104,58.25
25.109333,58.23
25.114667,58.24
25.12,58.24
25.125333,58.24
25.130667,58.18
25.136,58.19
25.141333,58.19
25.146667,58.32
25.152,58.41
25.157333,58.54
25.162667,58.49
25.168,58.41
25.173333,58.36
25.178667,58.41
25.184,58.32
25.189333,58.32
25.194667,58.27
25.2,58.23
25.205333,58.17
25.210667,58.28
25.216,58.21
25.221333,58.17
25.226667,58.1
25.232,58.19
25.237333,58.21
25.242667,58.21
25.248,58.18
25.253333,58.22
25.258667,58.31
25.264,58.4
25.269333,58.48
25.274667,58.42
25.28,58.46
25.285333,58.62
25.290667,58.68
25.296,58.87
25.301333,58.92
25.306667,58.97
25.312,58.9
25.317333,58.88
25.322667,58.93
25.328,59
25.333333,58.96
25.338667,58.92
25.344,58.89
25.349333,58.85
25.354667,58.81
25.36,58.77
25.365333,58.72
25.370667,58.63
25.376,58.59
25.381333,58.58
25.386667,58.71
25.392,58.76
25.397333,58.8
25.402667,58.77
25.408,58.79
25.413333,58.76
25.418667,58.73
25.424,58.73
25.429333,58.68
25.434667,58.67
25.44,58.68
25.445333,58.67
25.450667,58.62
25.456,58.52
25.461333,58.42
25.466667,58.36
25.472,58.37
25.477333,58.41
25.482667,58.31
25.488,58.24
25.493333,58.18
25.498667,58.14
25.504,58.14
25.509333,58.09
25.514667,57.99
25.52,57.9
25.525333,57.83
25.530667,57.77
25.536,57.76
25.541333,57.74
25.546667,57.66
25.552,57.58
25.557333,57.52
25.562667,57.55
25.568,57.56
25.573333,57.58
25.578667,57.58
25.584,57.51
25.589333,57.4
25.594667,57.36
25.6,57.27
25.605333,57.23
25.610667,57.17
25.616,57.18
25.621333,57.11
25.626667,57.13
25.632,57.15
25.637333,57.08
25.642667,57.02
25.648,56.98
25.653333,57.09
25.658667,57.1
25.664,57.01
25.669333,56.93
25.674667,56.93
25.68,56.91
25.685333,56.86
25.690667,56.84
25.696,56.85
25.701333,56.83
25.706667,56.8
25.712,56.79
25.717333,56.75
25.722667,56.75
25.728,56.73
25.733333,56.77
25.738667,56.78
25.744,56.76
25.749333,56.75
25.754667,56.79
25.76,56.73
25.765333,56.78
25.770667,56.79
25.776,56.8
25.781333,56.82
25.786667,56.85
25.792,56.86
25.797333,56.83
25.802667,56.85
25.808,56.88
25.813333,56.92
25.818667,56.87
25.824,56.82
25.829333,56.87
25.834667,56.95
25.84,57.02
25.845333,57.04
25.850667,57.04
25.856,57.03
25.861333,57.06
25.866667,57.11
25.872,57.14
25.877333,57.3
25.882667,57.37
25.888,57.34
25.893333,57.32
25.898667,57.4
25.904,57.4
25.909333,57.36
25.914667,57.28
25.92,57.24
25.925333,57.3
25.930667,57.3
25.936,57.28
25.941333,57.33
25.946667,57.32
25.952,57.36
25.957333,57.34
25.962667,57.34
25.968,57.39
25.973333,57.37
25.978667,57.41
25.984,57.51
25.989333,57.64
25.994667,57.69
26,57.7
26.005333,57.68
26.010667,57.69
26.016,57.84
26.021333,57.87
26.026667,57.88
26.032,57.87
26.037333,57.8
26.042667,57.77
26.048,57.77
26.053333,57.78
26.058667,57.75
26.064,57.73
26.069333,57.7
26.074667,57.71
26.08,57.7
26.085333,57.73
26.090667,57.65
26.096,57.6
26.101333,57.63
26.106667,57.79
26.112,57.86
26.117333,57.85
26.122667,58.05
26.128,58.04
26.133333,58.17
26.138667,58.32
26.144,58.37
26.149333,58.55
26.154667,58.66
26.16,58.68
26.165333,58.72
26.170667,58.71
26.176,58.67
26.181333,58.64
26.186667,58.71
26.192,58.71
26.197333,58.71
26.202667,58.65
26.208,58.6
26.213333,58.63
26.218667,58.61
26.224,58.62
26.229333,58.71
26.234667,58.67
26.24,58.64
26.245333,58.65
26.250667,58.6
26.256,58.62
26.261333,58.7
26.266667,58.81
26.272,58.8
26.277333,58.72
26.282667,58.69
26.288,58.67
26.293333,58.65
26.298667,58.62
26.304,58.52
26.309333,58.45
26.314667,58.42
26.32,58.4
26.325333,58.34
26.330667,58.3
26.336,58.28
26.341333,58.22
26.346667,58.25
26.352,58.33
26.357333,58.3
26.362667,58.26
26.368,58.21
26.373333,58.17
26.378667,58.2
26.384,58.22
26.389333,58.29
26.394667,58.29
26.4,58.38
26.405333,58.41
26.410667,58.42
26.416,58.47
26.421333,58.66
26.426667,58.68
26.432,58.67
26.437333,58.62
26.442667,58.54
26.448,58.54
26.453333,58.49
26.458667,58.4
26.464,58.35
26.469333,58.27
26.474667,58.26
26.48,58.27
26.485333,58.19
26.490667,58.11
26.496,58.13
26.501333,58.06
26.506667,58.03
26.512,58.05
26.517333,58.04
26.522667,58.05
26.528,58
26.533333,58.02
26.538667,58.01
26.544,57.97
26.549333,57.96
26.554667,57.92
26.56,57.94
26.565333,57.92
26.570667,58.02
26.576,58.03
26.581333,58.02
26.586667,58.03
26.592,58.03
26.597333,58.05
26.602667,58.06
26.608,58.02
26.613333,57.99
26.618667,58
26.624,57.92
26.629333,57.9
26.634667,57.93
26.64,57.84
26.645333,57.75
26.650667,57.73
26.656,57.66
26.661333,57.58
26.666667,57.55
26.672,57.49
26.677333,57.4
26.682667,57.39
26.688,57.34
26.693333,57.3
26.698667,57.28
26.704,57.29
26.709333,57.31
26.714667,57.28
26.72,57.25
26.725333,57.33
26.730667,57.35
26.736,57.37
26.741333,57.33
26.746667,57.39
26.752,57.35
26.757333,57.32
26.762667,57.31
26.768,57.33
26.773333,57.32
26.778667,57.33
26.784,57.71
26.789333,57.7
26.794667,57.65
26.8,57.65
26.805333,57.69
26.810667,57.76
26.816,57.83
26.821333,57.81
26.826667,57.81
26.832,57.88
26.837333,57.85
26.842667,57.84
26.848,57.87
26.853333,57.86
26.858667,57.87
26.864,57.86
26.869333,57.86
26.874667,57.9
26.88,57.93
26.885333,57.97
26.890667,58.08
26.896,58.14
26.901333,58.18
26.906667,58.17
26.912,58.19
26.917333,58.2
26.922667,58.15
26.928,58.09
26.933333,58.03
26.938667,58.04
26.944,57.97
26.949333,57.96
26.954667,58
26.96,57.94
26.965333,57.91
26.970667,57.85
26.976,57.83
26.981333,57.85
26.986667,57.87
26.992,57.87
26.997333,57.91
27.002667,57.98
27.008,57.99
27.013333,57.96
27.018667,57.92
27.024,57.91
27.029333,57.92
27.034667,57.87
27.04,57.81
27.045333,57.77
27.050667,57.72
27.056,57.69
27.061333,57.63
27.066667,57.6
27.072,57.59
27.077333,57.58
27.082667,57.53
27.088,57.57
27.093333,57.65
27.098667,57.68
27.104,57.72
27.109333,57.84
27.114667,57.79
27.12,57.77
27.125333,57.78
27.130667,57.72
27.136,57.71
27.141333,57.67
27.146667,57.6
27.152,57.58
27.157333,57.58
27.162667,57.5
27.168,57.47
27.173333,57.44
27.178667,57.42
27.184,57.37
27.189333,57.35
27.194667,57.43
27.2,57.43
27.205333,57.5
27.210667,57.59
27.216,57.61
27.221333,57.75
27.226667,57.77
27.232,57.84
27.237333,57.81
27.242667,57.79
27.248,57.69
27.253333,57.67
27.258667,57.71
27.264,57.71
27.269333,57.63
27.274667,57.61
27.28,57.53
27.285333,57.5
27.290667,57.48
27.296,57.44
27.301333,57.35
27.306667,57.31
27.312,57.37
27.317333,57.48
27.322667,57.55
27.328,57.54
27.333333,57.48
27.338667,57.4
27.344,57.4
27.349333,57.45
27.354667,57.53
27.36,57.55
27.365333,57.49
27.370667,57.43
27.376,57.41
27.381333,57.37
27.386667,57.36
27.392,57.33
27.397333,57.36
27.402667,57.32
27.408,57.33
27.413333,57.37
27.418667,57.36
27.424,57.38
27.429333,57.43
27.434667,57.48
27.44,57.65
27.445333,57.65
27.450667,57.62
27.456,57.59
27.461333,57.59
27.466667,57.69
27.472,57.74
27.477333,57.8
27.482667,57.78
27.488,57.68
27.493333,57.62
27.498667,57.69
27.504,57.7
27.509333,57.71
27.514667,57.66
27.52,57.69
27.525333,57.72
27.530667,57.66
27.536,57.61
27.541333,57.57
27.546667,57.55
27.552,57.51
27.557333,57.57
27.562667,57.71
27.568,57.7
27.573333,57.74
27.578667,57.68
27.584,57.62
27.589333,57.63
27.594667,57.65
27.6,57.64
27.605333,57.55
27.610667,57.49
27.616,57.42
27.621333,57.39
27.626667,57.33
27.632,57.33
27.637333,57.32
27.642667,57.38
27.648,57.42
27.653333,57.48
27.658667,57.46
27.664,57.47
27.669333,57.45
27.674667,57.41
27.68,57.4
27.685333,57.43
27.690667,57.54
27.696,59.2
27.701333,60.12
27.706667,60.61
27.712,60.59
27.717333,60.56
27.722667,60.58
27.728,60.53
27.733333,60.4
27.738667,60.32
27.744,60.24
27.749333,60.12
27.754667,60.04
27.76,60
27.765333,59.96
27.770667,59.88
27.776,59.8
27.781333,59.71
27.786667,59.66
27.792,59.62
27.797333,59.65
27.802667,59.58
27.808,59.49
27.813333,59.42
27.818667,59.31
27.824,59.22
27.829333,59.17
27.834667,59.12
27.84,59.02
27.845333,58.93
27.850667,58.85
27.856,58.79
27.861333,58.77
27.866667,58.8
27.872,58.75
27.877333,58.64
27.882667,58.55
27.888,58.46
27.893333,58.41
27.898667,58.31
27.904,58.27
27.909333,58.19
27.914667,58.07
27.92,58.01
27.925333,58.13
27.930667,58.08
27.936,58.1
27.941333,58.08
27.946667,58.08
27.952,58.06
27.957333,58.1
27.962667,58.04
27.968,57.93
27.973333,58.35
27.978667,58.4
27.984,58.4
27.989333,58.36
27.994667,58.27
28,58.23
28.005333,58.23
28.010667,58.23
28.016,58.18
28.021333,58.11
28.026667,58.04
28.032,58
28.037333,57.97
28.042667,57.96
28.048,57.92
28.053333,57.92
28.058667,57.88
28.064,57.79
28.069333,57.72
28.074667,57.7
28.08,57.7
28.085333,57.64
28.090667,57.61
28.096,57.6
28.101333,57.62
28.106667,57.63
28.112,57.67
28.117333,57.63
28.122667,57.52
28.128,57.47
28.133333,57.47
28.138667,57.47
28.144,57.44
28.149333,57.35
28.154667,57.33
28.16,57.27
28.165333,57.36
28.170667,57.46
28.176,57.38
28.181333,57.33
28.186667,57.34
28.192,57.39
28.197333,57.32
28.202667,57.32
28.208,57.36
28.213333,57.31
28.218667,57.26
28.224,57.22
28.229333,57.22
28.234667,57.27
28.24,57.23
28.245333,57.17
28.250667,57.09
28.256,57.08
28.261333,57.12
28.266667,57.1
28.272,57.06
28.277333,57.03
28.282667,57.06
28.288,57.05
28.293333,57.03
28.298667,57.02
28.304,56.97
28.309333,56.95
28.314667,56.89
28.32,56.89
28.325333,56.82
28.330667,56.77
28.336,56.71
28.341333,56.61
28.346667,56.6
28.352,56.58
28.357333,56.62
28.362667,56.63
28.368,56.62
28.373333,56.61
28.378667,56.56
28.384,56.61
28.389333,56.67
28.394667,56.7
28.4,56.71
28.405333,56.71
28.410667,56.71
28.416,56.81
28.421333,56.86
28.426667,56.78
28.432,56.78
28.437333,56.8
28.442667,56.76
28.448,56.76
28.453333,56.7
28.458667,56.63
28.464,56.63
28.469333,56.64
28.474667,56.66
28.48,56.58
28.485333,56.64
28.490667,56.64
28.496,56.61
28.501333,56.57
28.506667,56.52
28.512,56.52
28.517333,56.46
28.522667,56.44
28.528,56.44
28.533333,56.47
28.538667,56.44
28.544,56.41
28.549333,56.43
28.554667,56.46
28.56,56.47
28.565333,56.43
28.570667,56.33
28.576,56.26
28.581333,56.22
28.586667,56.15
28.592,56.14
28.597333,56.08
28.602667,56.02
28.608,56
28.613333,56.01
28.618667,55.98
28.624,55.95
28.629333,56
28.634667,56.04
28.64,56.06
28.645333,56.1
28.650667,56.29
28.656,56.75
28.661333,56.92
28.666667,56.99
28.672,56.99
28.677333,57.01
28.682667,57
28.688,57.06
28.693333,57.07
28.698667,57.15
28.704,57.23
28.709333,57.28
28.714667,57.25
28.72,57.26
28.725333,57.28
28.730667,57.37
28.736,57.43
28.741333,57.35
28.746667,57.34
28.752,57.29
28.757333,57.24
28.762667,57.25
28.768,57.2
28.773333,57.24
28.778667,57.28
28.784,57.21
28.789333,57.19
28.794667,57.14
28.8,57.12
28.805333,57.07
28.810667,57.03
28.816,57
28.821333,56.98
28.826667,57.03
28.832,57.03
28.837333,56.95
28.842667,56.85
28.848,56.8
28.853333,56.76
28.858667,56.73
28.864,56.72
28.869333,56.69
28.874667,56.71
28.88,56.69
28.885333,56.67
28.890667,56.68
28.896,56.68
28.901333,56.75
28.906667,56.79
28.912,56.74
28.917333,56.72
28.922667,56.68
28.928,56.68
28.933333,56.62
28.938667,56.65
28.944,57
28.949333,57.65
28.954667,57.73
28.96,57.69
28.965333,57.71
28.970667,57.72
28.976,57.68
28.981333,57.65
28.986667,57.68
28.992,57.65
28.997333,57.66
29.002667,57.68
29.008,57.66
29.013333,57.75
29.018667,57.78
29.024,57.73
29.029333,57.89
29.034667,57.9
29.04,57.86
29.045333,57.82
29.050667,57.75
29.056,57.69
29.061333,57.63
29.066667,57.57
29.072,57.57
29.077333,57.53
29.082667,57.48
29.088,57.44
29.093333,57.45
29.098667,57.55
29.104,57.53
29.109333,57.43
29.114667,57.33
29.12,57.27
29.125333,57.3
29.130667,57.29
29.136,57.31
29.141333,57.29
29.146667,57.25
29.152,57.2
29.157333,57.15
29.162667,57.13
29.168,57.07
29.173333,57.02
29.178667,56.96
29.184,56.92
29.189333,56.87
29.194667,56.92
29.2,56.92
29.205333,56.95
29.210667,56.92
29.216,56.89
29.221333,56.82
29.226667,56.75
29.232,56.76
29.237333,56.75
29.242667,56.72
29.248,56.71
29.253333,56.65
29.258667,56.64
29.264,56.59
29.269333,56.51
29.274667,56.46
29.28,56.53
29.285333,56.56
29.290667,56.52
29.296,56.51
29.301333,56.5
29.306667,56.47
29.312,56.43
29.317333,56.41
29.322667,56.45
29.328,56.48
29.333333,56.51
29.338667,56.48
29.344,56.45
29.349333,56.45
29.354667,56.42
29.36,56.39
29.365333,56.38
29.370667,56.46
29.376,56.6
29.381333,56.69
29.386667,56.77
29.392,56.73
29.397333,56.86
29.402667,56.96
29.408,56.98
29.413333,57.15
29.418667,57.19
29.424,57.26
29.429333,57.24
29.434667,57.36
29.44,57.47
29.445333,57.48
29.450667,57.51
29.456,57.65
29.461333,57.66
29.466667,57.7
29.472,57.7
29.477333,57.75
29.482667,57.73
29.488,57.7
29.493333,57.69
29.498667,57.66
29.504,57.64
29.509333,57.68
29.514667,57.58
29.52,57.58
29.525333,57.57
29.530667,57.62
29.536,57.64
29.541333,57.63
29.546667,57.63
29.552,57.71
29.557333,57.79
29.562667,57.81
29.568,57.79
29.573333,57.73
29.578667,57.68
29.584,57.67
29.589333,57.59
29.594667,57.58
29.6,57.57
29.605333,57.58
29.610667,57.56
29.616,57.69
29.621333,57.72
29.626667,57.69
29.632,57.68
29.637333,57.72
29.642667,57.76
29.648,57.91
29.653333,58.14
29.658667,58.3
29.664,58.41
29.669333,58.38
29.674667,58.45
29.68,58.53
29.685333,58.61
29.690667,58.67
29.696,58.71
29.701333,58.71
29.706667,58.74
29.712,58.72
29.717333,58.74
29.722667,58.72
29.728,58.75
29.733333,58.79
29.738667,58.79
29.744,58.75
29.749333,58.67
29.754667,58.68
29.76,58.69
29.765333,58.75
29.770667,58.74
29.776,58.67
29.781333,58.69
29.786667,58.63
29.792,58.61
29.797333,58.54
29.802667,58.76
29.808,58.97
29.813333,59.15
29.818667,59.2
29.824,59.24
29.829333,59.25
29.834667,59.26
29.84,59.36
29.845333,59.36
29.850667,59.37
29.856,59.39
29.861333,59.47
29.866667,59.46
29.872,59.38
29.877333,59.35
29.882667,59.25
29.888,59.23
29.893333,59.15
29.898667,59.13
29.904,59.15
29.909333,59.04
29.914667,59.06
29.92,59.02
29.925333,58.94
29.930667,58.92
29.936,58.82
29.941333,58.73
29.946667,58.65
29.952,58.63
29.957333,58.56
29.962667,58.7
29.968,59.14
29.973333,59.32
29.978667,59.35
29.984,59.37
29.989333,59.41
29.994667,59.46
30,59.46
30.005333,59.42
30.010667,59.41
30.016,59.35
30.021333,59.34
30.026667,59.24
30.032,59.13
30.037333,59.1
30.042667,59.1
30.048,59.02
30.053333,58.93
30.058667,58.86
30.064,58.78
30.069333,58.73
30.074667,58.69
30.08,58.61
30.085333,58.56
30.090667,58.48
30.096,58.43
30.101333,58.42
30.106667,58.52
30.112,58.53
30.117333,58.47
30.122667,58.41
30.128,58.42
30.133333,58.37
30.138667,58.38
30.144,58.34
30.149333,58.34
30.154667,58.4
30.16,58.34
30.165333,58.29
30.170667,58.21
30.176,58.16
30.181333,58.19
30.186667,58.13
30.192,58.1
30.197333,58.07
30.202667,58.12
30.208,58.07
30.213333,58.66
30.218667,58.68
30.224,58.88
30.229333,58.82
30.234667,58.75
30.24,58.71
30.245333,58.66
30.250667,58.57
30.256,58.54
30.261333,58.56
30.266667,58.47
30.272,58.38
30.277333,58.37
30.282667,58.3
30.288,58.29
30.293333,58.23
30.298667,58.25
30.304,58.18
30.309333,58.19
30.314667,58.23
30.32,58.19
30.325333,58.12
30.330667,58.04
30.336,57.96
30.341333,57.91
30.346667,57.84
30.352,57.74
30.357333,57.6
30.362667,57.57
30.368,57.48
30.373333,57.49
30.378667,57.48
30.384,57.48
30.389333,57.47
30.394667,57.39
30.4,57.32
30.405333,57.35
30.410667,57.34
30.416,57.32
30.421333,57.27
30.426667,57.22
30.432,57.15
30.437333,57.11
30.442667,57.07
30.448,57.03
30.453333,57
30.458667,56.96
30.464,57.04
30.469333,57.05
30.474667,57.03
30.48,57.11
30.485333,57.38
30.490667,57.5
30.496,57.58
30.501333,57.55
30.506667,57.57
30.512,57.5
30.517333,57.46
30.522667,57.41
30.528,57.5
30.533333,57.56
30.538667,57.55
30.544,57.74
30.549333,57.97
30.554667,58.07
30.56,58.11
30.565333,58.3
30.570667,58.44
30.576,58.62
30.581333,58.76
30.586667,58.96
30.592,59.12
30.597333,59.32
30.602667,59.52
30.608,59.71
30.613333,59.83
30.618667,59.92
30.624,60.08
30.629333,60.16
30.634667,60.41
30.64,60.66
30.645333,60.83
30.650667,60.96
30.656,61.03
30.661333,61.17
30.666667,61.26
30.672,61.37
30.677333,61.4
30.682667,61.4
30.688,61.44
30.693333,61.5
30.698667,61.54
30.704,61.58
30.709333,61.67
30.714667,61.64
30.72,61.61
30.725333,61.62
30.730667,61.64
30.736,61.61
30.741333,61.58
30.746667,61.51
30.752,61.45
30.757333,61.43
30.762667,61.36
30.768,61.3
30.773333,61.22
30.778667,61.17
30.784,61.1
30.789333,61.07
30.794667,61.01
30.8,61.02
30.805333,60.96
30.810667,60.88
30.816,60.8
30.821333,60.68
30.826667,60.64
30.832,60.55
30.837333,60.52
30.842667,60.5
30.848,60.43
30.853333,60.37
30.858667,60.32
30.864,60.3
30.869333,60.3
30.874667,60.25
30.88,60.2
30.885333,60.17
30.890667,60.16
30.896,60.16
30.901333,60.21
30.906667,60.23
30.912,60.21
30.917333,60.21
30.922667,60.21
30.928,60.12
30.933333,60.04
30.938667,60
30.944,60.07
30.949333,60.09
30.954667,60.12
30.96,60.18
30.965333,60.11
30.970667,60.05
30.976,60.03
30.981333,60.03
30.986667,60
30.992,60.06
30.997333,60.04
31.002667,59.98
31.008,60.01
31.013333,59.96
31.018667,59.9
31.024,59.84
31.029333,59.8
31.034667,59.7
31.04,59.63
31.045333,59.53
31.050667,59.46
31.056,59.4
31.061333,59.34
31.066667,59.29
31.072,59.28
31.077333,59.2
31.082667,59.15
31.088,59.15
31.093333,59.22
31.098667,59.29
31.104,59.3
31.109333,59.21
31.114667,59.13
31.12,59.09
31.125333,59.11
31.130667,59.09
31.136,58.98
31.141333,58.9
31.146667,58.84
31.152,58.74
31.157333,58.7
31.162667,58.63
31.168,58.73
31.173333,58.69
31.178667,58.68
31.184,58.7
31.189333,58.73
31.194667,58.72
31.2,58.89
31.205333,59.04
31.210667,59.3
31.216,59.34
31.221333,59.54
31.226667,59.54
31.232,59.65
31.237333,59.71
31.242667,59.74
31.248,59.88
31.253333,60.09
31.258667,60.17
31.264,60.11
31.269333,60.11
31.274667,60.03
31.28,59.91
31.285333,59.87
31.290667,59.78
31.296,59.7
31.301333,59.6
31.306667,59.5
31.312,59.39
31.317333,59.33
31.322667,59.22
31.328,59.17
31.333333,59.14
31.338667,59.04
31.344,58.94
31.349333,58.85
31.354667,58.79
31.36,58.94
31.365333,59
31.370667,59.01
31.376,59.01
31.381333,59
31.386667,58.96
31.392,59.03
31.397333,59.03
31.402667,58.97
31.408,58.9
31.413333,58.88
31.418667,58.87
31.424,58.88
31.429333,58.87
31.434667,58.95
31.44,58.94
31.445333,59.03
31.450667,59
31.456,58.94
31.461333,58.9
31.466667,59.1
31.472,59.09
31.477333,59.04
31.482667,58.98
31.488,58.91
31.493333,58.87
31.498667,58.82
31.504,58.73
31.509333,58.73
31.514667,58.69
31.52,58.62
31.525333,58.55
31.530667,58.54
31.536,58.51
31.541333,58.51
31.546667,58.46
31.552,58.47
31.557333,58.44
31.562667,58.38
31.568,58.32
31.573333,58.21
31.578667,58.2
31.584,58.2
31.589333,58.12
31.594667,58.06
31.6,58.01
31.605333,58.1
31.610667,58.11
31.616,58.03
31.621333,57.96
31.626667,57.91
31.632,57.89
31.637333,57.87
31.642667,57.86
31.648,57.86
31.653333,57.83
31.658667,57.76
31.664,57.91
31.669333,57.86
31.674667,57.78
31.68,57.72
31.685333,57.74
31.690667,57.71
31.696,57.75
31.701333,57.74
31.706667,57.78
31.712,57.78
31.717333,57.8
31.722667,57.92
31.728,57.87
31.733333,57.79
31.738667,57.72
31.744,57.68
31.749333,57.67
31.754667,57.6
31.76,57.58
31.765333,57.68
31.770667,57.61
31.776,57.6
31.781333,57.56
31.786667,57.54
31.792,57.63
31.797333,57.81
31.802667,57.83
31.808,57.82
31.813333,57.86
31.818667,57.9
31.824,57.85
31.829333,57.87
31.834667,57.98
31.84,57.96
31.845333,57.96
31.850667,57.97
31.856,58.02
31.861333,58.04
31.866667,58.03
31.872,57.97
31.877333,58
31.882667,58.04
31.888,57.97
31.893333,58.02
31.898667,58.23
31.904,58.18
31.909333,58.11
31.914667,58.16
31.92,58.19
31.925333,58.15
31.930667,58.07
31.936,58
31.941333,57.96
31.946667,57.89
31.952,57.87
31.957333,57.88
31.962667,57.86
31.968,57.79
31.973333,57.8
31.978667,57.76
31.984,57.82
31.989333,57.86
31.994667,57.9
32,57.93
32.005333,57.94
32.010667,57.89
32.016,57.92
32.021333,57.94
32.026667,58
32.032,57.96
32.037333,57.99
32.042667,58
32.048,57.99
32.053333,57.95
32.058667,57.99
32.064,57.97
32.069333,58
32.074667,57.97
32.08,57.98
32.085333,57.94
32.090667,58.01
32.096,58.07
32.101333,58.02
32.106667,58.02
32.112,58.07
32.117333,57.97
32.122667,57.93
32.128,57.87
32.133333,57.87
32.138667,57.81
32.144,57.8
32.149333,57.78
32.154667,57.86
32.16,57.88
32.165333,57.9
32.170667,57.94
32.176,57.92
32.181333,57.88
32.186667,57.89
32.192,57.9
32.197333,57.99
32.202667,57.98
32.208,57.98
32.213333,58.08
32.218667,58.19
32.224,58.22
32.229333,58.2
32.234667,58.18
32.24,58.17
32.245333,58.26
32.250667,58.22
32.256,58.27
32.261333,58.31
32.266667,58.23
32.272,58.24
32.277333,58.28
32.282667,58.28
32.288,58.38
32.293333,58.42
32.298667,58.42
32.304,58.61
32.309333,58.63
32.314667,58.56
32.32,58.72
32.325333,58.68
32.330667,58.65
32.336,58.61
32.341333,58.56
32.346667,58.57
32.352,58.5
32.357333,58.46
32.362667,58.43
32.368,58.39
32.373333,58.37
32.378667,58.36
32.384,58.41
32.389333,58.48
32.394667,58.44
32.4,58.45
32.405333,58.52
32.410667,58.57
32.416,58.59
32.421333,59.35
32.426667,59.35
32.432,59.27
32.437333,59.29
32.442667,59.25
32.448,59.19
32.453333,59.21
32.458667,59.17
32.464,59.23
32.469333,59.25
32.474667,59.34
32.48,59.39
32.485333,59.33
32.490667,59.29
32.496,59.24
32.501333,59.16
32.506667,59.23
32.512,59.14
32.517333,59.05
32.522667,59.04
32.528,59.19
32.533333,59.22
32.538667,59.18
32.544,59.14
32.549333,59.2
32.554667,59.24
32.56,59.2
32.565333,59.17
32.570667,59.21
32.576,59.17
32.581333,59.19
32.586667,59.21
32.592,59.19
32.597333,59.16
32.602667,59.16
32.608,59.13
32.613333,59.06
32.618667,59.05
32.624,59.01
32.629333,59.02
32.634667,59.05
32.64,59.15
32.645333,59.15
32.650667,59.18
32.656,59.29
32.661333,59.31
32.666667,59.35
32.672,59.31
32.677333,59.27
32.682667,59.28
32.688,59.61
32.693333,59.62
32.698667,59.57
32.704,59.58
32.709333,59.56
32.714667,59.51
32.72,59.57
32.725333,59.57
32.730667,59.65
32.736,59.62
32.741333,59.55
32.746667,59.54
32.752,59.51
32.757333,59.56
32.762667,59.56
32.768,59.54
32.773333,59.5
32.778667,59.53
32.784,59.5
32.789333,59.5
32.794667,59.4
32.8,59.36
32.805333,59.38
32.810667,59.38
32.816,59.45
32.821333,59.41
32.826667,59.38
32.832,59.38
32.837333,59.46
32.842667,59.55
32.848,59.57
32.853333,59.54
32.858667,59.6
32.864,59.57
32.869333,59.68
32.874667,59.68
32.88,59.79
32.885333,59.72
32.890667,59.79
32.896,59.93
32.901333,60.05
32.906667,60.14
32.912,60.3
32.917333,60.5
32.922667,60.58
32.928,60.87
32.933333,60.95
32.938667,61.13
32.944,61.23
32.949333,61.23
32.954667,61.24
32.96,61.26
32.965333,61.23
32.970667,61.38
32.976,61.44
32.981333,61.44
32.986667,61.45
32.992,61.5
32.997333,61.77
33.002667,61.88
33.008,61.86
33.013333,61.76
33.018667,61.66
33.024,61.67
33.029333,61.67
33.034667,61.66
33.04,61.61
33.045333,61.56
33.050667,61.61
33.056,61.6
33.061333,61.54
33.066667,61.58
33.072,61.5
33.077333,61.45
33.082667,61.39
33.088,61.36
33.093333,61.31
33.098667,61.31
33.104,61.25
33.109333,61.23
33.114667,61.22
33.12,61.21
33.125333,61.16
33.130667,61.11
33.136,61.08
33.141333,61.06
33.146667,61.07
33.152,61.12
33.157333,61.14
33.162667,61.38
33.168,61.47
33.173333,61.49
33.178667,61.44
33.184,61.4
33.189333,61.33
33.194667,61.26
33.2,61.25
33.205333,61.22
33.210667,61.22
33.216,61.26
33.221333,61.24
33.226667,61.32
33.232,61.24
33.237333,61.2
33.242667,61.13
33.248,61.03
33.253333,60.99
33.258667,60.91
33.264,60.86
33.269333,60.81
33.274667,60.77
33.28,60.79
33.285333,60.76
33.290667,60.69
33.296,60.69
33.301333,60.67
33.306667,60.57
33.312,60.53
33.317333,60.52
33.322667,60.51
33.328,60.44
33.333333,60.44
33.338667,60.47
33.344,60.43
33.349333,60.41
33.354667,60.35
33.36,60.39
33.365333,60.41
33.370667,60.44
33.376,60.47
33.381333,60.51
33.386667,60.65
33.392,60.64
33.397333,60.66
33.402667,60.69
33.408,60.67
33.413333,60.69
33.418667,60.86
33.424,60.81
33.429333,60.9
33.434667,60.97
33.44,61.23
33.445333,61.4
33.450667,61.57
33.456,61.68
33.461333,61.72
33.466667,61.88
33.472,61.93
33.477333,61.91
33.482667,61.91
33.488,61.88
33.493333,61.82
33.498667,61.81
33.504,61.8
33.509333,61.74
33.514667,61.73
33.52,61.62
33.525333,61.52
33.530667,61.5
33.536,61.41
33.541333,61.36
33.546667,61.26
33.552,61.19
33.557333,61.17
33.562667,61.12
33.568,61.37
33.573333,61.4
33.578667,61.39
33.584,61.38
33.589333,61.39
33.594667,61.48
33.6,61.63
33.605333,61.61
33.610667,61.59
33.616,61.58
33.621333,61.6
33.626667,61.6
33.632,61.61
33.637333,61.62
33.642667,61.58
33.648,61.51
33.653333,61.45
33.658667,61.41
33.664,61.37
33.669333,61.48
33.674667,61.46
33.68,61.42
33.685333,61.4
33.690667,61.44
33.696,61.4
33.701333,61.35
33.706667,61.37
33.712,61.35
33.717333,61.36
33.722667,61.39
33.728,61.44
33.733333,61.43
33.738667,61.44
33.744,61.44
33.749333,61.42
33.754667,61.4
33.76,61.42
33.765333,61.48
33.770667,61.51
33.776,61.56
33.781333,61.56
33.786667,61.51
33.792,61.49
33.797333,61.47
33.802667,61.48
33.808,61.48
33.813333,61.44
33.818667,61.42
33.824,61.43
33.829333,61.35
33.834667,61.36
33.84,61.33
33.845333,61.3
33.850667,61.3
33.856,61.24
33.861333,61.21
33.866667,61.21
33.872,61.15
33.877333,61.14
33.882667,61.13
33.888,61.17
33.893333,61.15
33.898667,61.12
33.904,61.1
33.909333,61.11
33.914667,61.04
33.92,60.98
33.925333,60.89
33.930667,60.82
33.936,60.78
33.941333,60.73
33.946667,60.7
33.952,60.69
33.957333,60.68
33.962667,60.65
33.968,60.73
33.973333,61
33.978667,61.15
33.984,61.16
33.989333,61.17
33.994667,61.25
34,61.33
34.005333,61.34
34.010667,61.36
34.016,61.44
34.021333,61.38
34.026667,61.34
34.032,61.37
34.037333,61.34
34.042667,62.78
34.048,62.94
34.053333,62.9
34.058667,62.94
34.064,62.87
34.069333,62.82
34.074667,62.74
34.08,62.7
34.085333,62.6
34.090667,62.51
34.096,62.47
34.101333,62.65
34.106667,62.61
34.112,62.57
34.117333,62.61
34.122667,62.76
34.128,62.66
34.133333,62.56
34.138667,62.47
34.144,62.43
34.149333,62.41
34.154667,62.4
34.16,62.46
34.165333,62.44
34.170667,62.34
34.176,62.27
34.181333,62.17
34.186667,62.1
34.192,62.01
34.197333,62.07
34.202667,62.13
34.208,62.09
34.213333,62.03
34.218667,62.07
34.224,62.23
34.229333,62.18
34.234667,62.14
34.24,62.1
34.245333,62.07
34.250667,62.05
34.256,61.98
34.261333,62
34.266667,61.97
34.272,61.98
34.277333,62.04
34.282667,62.12
34.288,62.03
34.293333,62.07
34.298667,62.15
34.304,62.25
34.309333,62.21
34.314667,62.21
34.32,62.14
34.325333,62.15
34.330667,62.08
34.336,62.01
34.341333,61.94
34.346667,62.48
34.352,62.53
34.357333,62.48
34.362667,62.44
34.368,62.35
34.373333,62.28
34.378667,62.26
34.384,62.21
34.389333,62.11
34.394667,62.09
34.4,62
34.405333,62
34.410667,62.05
34.416,62.16
34.421333,62.09
34.426667,62.04
34.432,62.02
34.437333,61.98
34.442667,61.96
34.448,61.98
34.453333,61.96
34.458667,61.98
34.464,61.96
34.469333,61.91
34.474667,61.86
34.48,61.86
34.485333,61.85
34.490667,61.88
34.496,61.85
34.501333,61.92
34.506667,62
34.512,62.09
34.517333,62.38
34.522667,62.5
34.528,62.56
34.533333,62.63
34.538667,62.58
34.544,62.68
34.549333,62.79
34.554667,63.01
34.56,63.11
34.565333,63.14
34.570667,63.23
34.576,63.27
34.581333,63.23
34.586667,63.23
34.592,63.19
34.597333,63.24
34.602667,63.21
34.608,63.17
34.613333,63.16
34.618667,63.15
34.624,63.08
34.629333,63.04
34.634667,62.97
34.64,62.93
34.645333,62.87
34.650667,62.81
34.656,62.83
34.661333,62.83
34.666667,62.86
34.672,62.92
34.677333,62.95
34.682667,63.01
34.688,63
34.693333,62.97
34.698667,62.9
34.704,62.96
34.709333,62.95
34.714667,62.9
34.72,62.88
34.725333,62.92
34.730667,62.92
34.736,62.87
34.741333,62.81
34.746667,62.74
34.752,62.68
34.757333,62.6
34.762667,62.56
34.768,62.47
34.773333,62.51
34.778667,62.47
34.784,62.42
34.789333,62.45
34.794667,62.47
34.8,62.45
34.805333,62.34
34.810667,62.28
34.816,62.31
34.821333,62.23
34.826667,62.22
34.832,62.26
34.837333,62.31
34.842667,62.39
34.848,62.38
34.853333,62.38
34.858667,62.36
34.864,63.67
34.869333,63.81
34.874667,63.75
34.88,63.67
34.885333,63.61
34.890667,63.54
34.896,63.46
34.901333,63.41
34.906667,63.31
34.912,63.23
34.917333,63.17
34.922667,63.18
34.928,63.19
34.933333,63.11
34.938667,63.05
34.944,62.97
34.949333,62.98
34.954667,62.95
34.96,62.89
34.965333,62.81
34.970667,62.76
34.976,62.7
34.981333,62.6
34.986667,62.55
34.992,62.47
34.997333,62.43
35.002667,62.33
35.008,62.27
35.013333,62.22
35.018667,62.19
35.024,62.11
35.029333,62.13
35.034667,62.06
35.04,61.95
35.045333,61.93
35.050667,61.88
35.056,61.83
35.061333,61.75
35.066667,61.69
35.072,61.65
35.077333,61.7
35.082667,61.75
35.088,61.78
35.093333,61.77
35.098667,61.77
35.104,61.76
35.109333,61.73
35.114667,61.74
35.12,61.72
35.125333,61.73
35.130667,61.69
35.136,62.03
35.141333,62.02
35.146667,62.05
35.152,62.08
