Time file:	R:\UCL_SSID\SSID_DATABASE\SSID_London\OFF_CamdenTown1_FULL_190502\OFF_CamdenTown1_BIN_190502\CamdenTown1_HDF\13-32_9.hdf
Mark:		13-32_9 (0.00 - 19.69 s)
Filter:	
Analysis:	Speech Interference Level vs. Time (SIL-4; Fast)
Statistic:	Max[13-32_9.{Left,Right}]
Kind:	SpeechInterferenceLevel
Abscissa 1:	Time,s
Channel 1:	Max {Pa},Speech Interference Level,dB(SPL),N/A=n/a ; Avg,arith=59.14; SIL5=62.91; SIL10=62.47; SIL50=58.10; SIL90=56.21; SIL95=56.01 dB(SPL); Min=55.67 dB(SPL) @1.22 s; Max=64.62 dB(SPL) @19.7 s
Comment:
<User Comment>
CT119
<>
SQobold SD recording
S/N 33020299 Name U London FW 1.5/3
Ch1: 104 dB(SPL) ICP
Ch2: 104 dB(SPL) ICP
User Information:
SSID Field Binaural Basic/Comments = Researcher talking, traffic noise, people talking, 
SSID Field Binaural Basic/Delete/scratch? = False
SSID Field Binaural Basic/End Buffer = 
SSID Field Binaural Basic/GroupID = CT119
SSID Field Binaural Basic/No edit needed = False
SSID Field Binaural Basic/SessionID = CamdenTown1
SSID Field Binaural Basic/Start Buffer = 


0,57.87
0.00533333,57.77
0.0106667,57.86
0.016,57.85
0.0213333,57.87
0.0266667,57.92
0.032,57.87
0.0373333,57.88
0.0426667,57.84
0.048,57.87
0.0533333,57.82
0.0586667,57.76
0.064,57.79
0.0693333,57.82
0.0746667,57.81
0.08,57.79
0.0853333,57.75
0.0906667,57.73
0.096,57.69
0.101333,57.71
0.106667,57.71
0.112,57.75
0.117333,57.7
0.122667,57.67
0.128,57.7
0.133333,57.7
0.138667,57.67
0.144,57.64
0.149333,57.61
0.154667,57.66
0.16,57.65
0.165333,57.66
0.170667,57.64
0.176,57.67
0.181333,57.58
0.186667,57.72
0.192,57.72
0.197333,57.72
0.202667,57.82
0.208,57.93
0.213333,57.96
0.218667,58.1
0.224,58.14
0.229333,58.26
0.234667,58.45
0.24,58.57
0.245333,58.61
0.250667,58.66
0.256,58.61
0.261333,58.58
0.266667,58.5
0.272,58.47
0.277333,58.46
0.282667,58.39
0.288,58.46
0.293333,58.44
0.298667,58.37
0.304,58.31
0.309333,58.33
0.314667,58.27
0.32,58.21
0.325333,58.15
0.330667,58.1
0.336,58.08
0.341333,57.98
0.346667,57.94
0.352,57.9
0.357333,57.86
0.362667,57.85
0.368,57.81
0.373333,57.81
0.378667,57.8
0.384,57.77
0.389333,57.73
0.394667,57.7
0.4,57.72
0.405333,57.67
0.410667,57.64
0.416,57.68
0.421333,57.6
0.426667,57.65
0.432,57.69
0.437333,57.64
0.442667,57.59
0.448,57.56
0.453333,57.51
0.458667,57.49
0.464,57.48
0.469333,57.44
0.474667,57.51
0.48,57.52
0.485333,57.5
0.490667,57.46
0.496,57.45
0.501333,57.41
0.506667,57.41
0.512,57.45
0.517333,57.45
0.522667,57.37
0.528,57.31
0.533333,57.3
0.538667,57.32
0.544,57.28
0.549333,57.26
0.554667,57.23
0.56,57.24
0.565333,57.2
0.570667,57.18
0.576,57.17
0.581333,57.18
0.586667,57.2
0.592,57.14
0.597333,57.21
0.602667,57.19
0.608,57.16
0.613333,57.18
0.618667,57.19
0.624,57.15
0.629333,57.05
0.634667,57.05
0.64,57.06
0.645333,57
0.650667,57.1
0.656,57.09
0.661333,57.08
0.666667,57.06
0.672,57.08
0.677333,57.08
0.682667,57.05
0.688,57.06
0.693333,57.06
0.698667,57.08
0.704,57.09
0.709333,57.05
0.714667,57.02
0.72,56.98
0.725333,57.02
0.730667,56.97
0.736,56.88
0.741333,56.86
0.746667,56.84
0.752,56.87
0.757333,56.91
0.762667,56.85
0.768,56.81
0.773333,56.79
0.778667,56.72
0.784,56.71
0.789333,56.63
0.794667,56.59
0.8,56.56
0.805333,56.53
0.810667,56.48
0.816,56.48
0.821333,56.44
0.826667,56.4
0.832,56.33
0.837333,56.42
0.842667,56.42
0.848,56.38
0.853333,56.36
0.858667,56.37
0.864,56.44
0.869333,56.46
0.874667,56.36
0.88,56.31
0.885333,56.27
0.890667,56.31
0.896,56.28
0.901333,56.27
0.906667,56.31
0.912,56.26
0.917333,56.27
0.922667,56.18
0.928,56.22
0.933333,56.21
0.938667,56.24
0.944,56.28
0.949333,56.2
0.954667,56.17
0.96,56.11
0.965333,56.11
0.970667,56.03
0.976,56
0.981333,56.04
0.986667,56.04
0.992,56.05
0.997333,55.95
1.002667,56.07
1.008,56.1
1.013333,56.15
1.018667,56.19
1.024,56.11
1.029333,56.15
1.034667,56.15
1.04,56.14
1.045333,56.14
1.050667,56.11
1.056,56.14
1.061333,56.07
1.066667,56.03
1.072,56.07
1.077333,56.04
1.082667,56.06
1.088,56.06
1.093333,56.02
1.098667,56.02
1.104,56.03
1.109333,55.95
1.114667,55.97
1.12,55.96
1.125333,55.9
1.130667,55.84
1.136,55.83
1.141333,55.81
1.146667,55.79
1.152,55.8
1.157333,55.71
1.162667,55.74
1.168,55.75
1.173333,55.77
1.178667,55.78
1.184,55.73
1.189333,55.68
1.194667,55.67
1.2,55.75
1.205333,55.76
1.210667,55.74
1.216,55.69
1.221333,55.67
1.226667,55.68
1.232,55.69
1.237333,55.69
1.242667,55.7
1.248,55.73
1.253333,55.75
1.258667,55.69
1.264,55.71
1.269333,55.75
1.274667,55.77
1.28,55.75
1.285333,55.72
1.290667,55.69
1.296,55.69
1.301333,55.69
1.306667,55.82
1.312,55.89
1.317333,55.95
1.322667,55.98
1.328,55.99
1.333333,56.05
1.338667,56.07
1.344,56.12
1.349333,56.23
1.354667,56.24
1.36,56.22
1.365333,56.14
1.370667,56.14
1.376,56.23
1.381333,56.27
1.386667,56.23
1.392,56.2
1.397333,56.12
1.402667,56.11
1.408,56.16
1.413333,56.23
1.418667,56.27
1.424,56.22
1.429333,56.2
1.434667,56.25
1.44,56.3
1.445333,56.41
1.450667,56.4
1.456,56.42
1.461333,56.48
1.466667,56.51
1.472,56.55
1.477333,56.6
1.482667,56.57
1.488,56.56
1.493333,56.51
1.498667,56.57
1.504,56.5
1.509333,56.57
1.514667,56.53
1.52,56.46
1.525333,56.54
1.530667,56.51
1.536,56.51
1.541333,56.53
1.546667,56.57
1.552,56.54
1.557333,56.53
1.562667,56.49
1.568,56.47
1.573333,56.52
1.578667,56.83
1.584,57.15
1.589333,57.32
1.594667,57.52
1.6,57.86
1.605333,58.03
1.610667,58.11
1.616,58.1
1.621333,58.06
1.626667,58
1.632,57.96
1.637333,57.95
1.642667,57.88
1.648,57.87
1.653333,57.88
1.658667,57.83
1.664,57.76
1.669333,57.73
1.674667,57.66
1.68,57.64
1.685333,57.59
1.690667,57.56
1.696,57.6
1.701333,57.63
1.706667,57.64
1.712,57.61
1.717333,57.58
1.722667,57.54
1.728,57.49
1.733333,57.41
1.738667,57.38
1.744,57.34
1.749333,57.29
1.754667,57.23
1.76,57.2
1.765333,57.19
1.770667,57.11
1.776,57.14
1.781333,57.12
1.786667,57.09
1.792,57.01
1.797333,56.96
1.802667,56.91
1.808,56.9
1.813333,56.84
1.818667,56.79
1.824,56.71
1.829333,56.69
1.834667,56.58
1.84,56.53
1.845333,56.45
1.850667,56.45
1.856,56.42
1.861333,56.33
1.866667,56.27
1.872,56.22
1.877333,56.19
1.882667,56.17
1.888,56.15
1.893333,56.1
1.898667,56.07
1.904,55.99
1.909333,56.07
1.914667,56.03
1.92,56.04
1.925333,55.99
1.930667,55.95
1.936,55.91
1.941333,55.91
1.946667,55.87
1.952,55.83
1.957333,55.85
1.962667,55.79
1.968,55.84
1.973333,55.86
1.978667,55.87
1.984,56.02
1.989333,56.06
1.994667,56.09
2,56.08
2.005333,56.07
2.010667,56.11
2.016,56.15
2.021333,56.18
2.026667,56.11
2.032,56.1
2.037333,56.11
2.042667,56.18
2.048,56.14
2.053333,56.18
2.058667,56.2
2.064,56.19
2.069333,56.21
2.074667,56.12
2.08,56.12
2.085333,56.21
2.090667,56.19
2.096,56.22
2.101333,56.2
2.106667,56.18
2.112,56.14
2.117333,56.07
2.122667,56.04
2.128,56
2.133333,56.01
2.138667,55.97
2.144,55.96
2.149333,55.97
2.154667,55.97
2.16,55.97
2.165333,56.08
2.170667,56.11
2.176,56.09
2.181333,56.15
2.186667,56.16
2.192,56.1
2.197333,56.09
2.202667,56.09
2.208,56.14
2.213333,56.15
2.218667,56.3
2.224,56.35
2.229333,56.31
2.234667,56.27
2.24,56.32
2.245333,56.48
2.250667,56.57
2.256,56.61
2.261333,56.68
2.266667,56.69
2.272,56.66
2.277333,56.62
2.282667,56.61
2.288,56.58
2.293333,56.55
2.298667,56.55
2.304,56.63
2.309333,56.61
2.314667,56.52
2.32,56.51
2.325333,56.51
2.330667,56.48
2.336,56.52
2.341333,56.56
2.346667,56.63
2.352,56.65
2.357333,56.64
2.362667,56.64
2.368,56.6
2.373333,56.59
2.378667,56.61
2.384,56.86
2.389333,56.79
2.394667,56.84
2.4,56.81
2.405333,56.76
2.410667,56.74
2.416,56.71
2.421333,56.67
2.426667,56.65
2.432,56.59
2.437333,56.57
2.442667,56.52
2.448,56.5
2.453333,56.47
2.458667,56.43
2.464,56.45
2.469333,56.45
2.474667,56.52
2.48,56.58
2.485333,56.54
2.490667,56.52
2.496,56.48
2.501333,56.47
2.506667,56.45
2.512,56.44
2.517333,56.36
2.522667,56.38
2.528,56.55
2.533333,56.7
2.538667,56.75
2.544,56.81
2.549333,56.8
2.554667,56.93
2.56,56.96
2.565333,57.01
2.570667,56.98
2.576,56.96
2.581333,56.93
2.586667,56.91
2.592,56.82
2.597333,56.78
2.602667,56.73
2.608,56.71
2.613333,56.66
2.618667,56.59
2.624,56.52
2.629333,56.48
2.634667,56.45
2.64,56.4
2.645333,56.37
2.650667,56.34
2.656,56.3
2.661333,56.28
2.666667,56.28
2.672,56.29
2.677333,56.27
2.682667,56.23
2.688,56.2
2.693333,56.2
2.698667,56.19
2.704,56.19
2.709333,56.2
2.714667,56.21
2.72,56.24
2.725333,56.24
2.730667,56.29
2.736,56.33
2.741333,56.35
2.746667,56.41
2.752,56.42
2.757333,56.43
2.762667,56.45
2.768,56.43
2.773333,56.38
2.778667,56.38
2.784,56.43
2.789333,56.44
2.794667,56.46
2.8,56.45
2.805333,56.4
2.810667,56.34
2.816,56.29
2.821333,56.26
2.826667,56.34
2.832,56.43
2.837333,56.41
2.842667,56.4
2.848,56.39
2.853333,56.42
2.858667,56.44
2.864,56.54
2.869333,56.48
2.874667,56.46
2.88,56.41
2.885333,56.34
2.890667,56.27
2.896,56.26
2.901333,56.19
2.906667,56.2
2.912,56.14
2.917333,56.08
2.922667,56.08
2.928,56.04
2.933333,56.01
2.938667,56.02
2.944,55.99
2.949333,55.94
2.954667,55.93
2.96,55.9
2.965333,55.91
2.970667,55.88
2.976,55.9
2.981333,55.86
2.986667,55.85
2.992,55.88
2.997333,55.82
3.002667,55.8
3.008,55.82
3.013333,55.8
3.018667,55.78
3.024,55.79
3.029333,55.87
3.034667,55.84
3.04,55.9
3.045333,55.94
3.050667,55.92
3.056,55.95
3.061333,55.97
3.066667,55.92
3.072,55.95
3.077333,55.97
3.082667,56.11
3.088,56.17
3.093333,56.19
3.098667,56.19
3.104,56.17
3.109333,56.16
3.114667,56.13
3.12,56.11
3.125333,56.14
3.130667,56.34
3.136,56.28
3.141333,56.29
3.146667,56.28
3.152,56.33
3.157333,56.37
3.162667,56.31
3.168,56.29
3.173333,56.22
3.178667,56.2
3.184,56.28
3.189333,56.34
3.194667,56.3
3.2,56.2
3.205333,56.24
3.210667,56.23
3.216,56.27
3.221333,56.27
3.226667,56.28
3.232,56.27
3.237333,56.25
3.242667,56.21
3.248,56.21
3.253333,56.23
3.258667,56.19
3.264,56.16
3.269333,56.12
3.274667,56.2
3.28,56.24
3.285333,56.2
3.290667,56.22
3.296,56.24
3.301333,56.28
3.306667,56.23
3.312,56.22
3.317333,56.26
3.322667,56.24
3.328,56.22
3.333333,56.18
3.338667,56.14
3.344,56.14
3.349333,56.07
3.354667,56.03
3.36,56.03
3.365333,56.01
3.370667,55.99
3.376,56.07
3.381333,56.01
3.386667,55.96
3.392,55.88
3.397333,55.84
3.402667,55.91
3.408,55.95
3.413333,55.98
3.418667,55.93
3.424,55.87
3.429333,55.88
3.434667,55.85
3.44,55.87
3.445333,55.96
3.450667,55.93
3.456,55.86
3.461333,55.84
3.466667,55.89
3.472,55.85
3.477333,55.84
3.482667,55.82
3.488,55.77
3.493333,55.87
3.498667,55.81
3.504,55.87
3.509333,55.86
3.514667,55.88
3.52,55.94
3.525333,55.94
3.530667,55.87
3.536,55.84
3.541333,55.84
3.546667,55.83
3.552,55.8
3.557333,55.83
3.562667,55.87
3.568,55.87
3.573333,55.83
3.578667,55.78
3.584,55.8
3.589333,55.82
3.594667,55.79
3.6,55.83
3.605333,55.8
3.610667,55.85
3.616,55.84
3.621333,55.84
3.626667,55.83
3.632,55.77
3.637333,55.78
3.642667,55.82
3.648,55.93
3.653333,56.06
3.658667,56.11
3.664,56.17
3.669333,56.17
3.674667,56.38
3.68,56.42
3.685333,56.55
3.690667,56.62
3.696,56.59
3.701333,56.6
3.706667,56.55
3.712,56.57
3.717333,56.57
3.722667,56.58
3.728,56.58
3.733333,56.59
3.738667,56.51
3.744,56.49
3.749333,56.41
3.754667,56.35
3.76,56.28
3.765333,56.23
3.770667,56.23
3.776,56.24
3.781333,56.19
3.786667,56.21
3.792,56.21
3.797333,56.22
3.802667,56.23
3.808,56.23
3.813333,56.3
3.818667,56.25
3.824,56.29
3.829333,56.3
3.834667,56.32
3.84,56.32
3.845333,56.25
3.850667,56.29
3.856,56.41
3.861333,56.44
3.866667,56.37
3.872,56.27
3.877333,56.26
3.882667,56.16
3.888,56.12
3.893333,56.14
3.898667,56.13
3.904,56.15
3.909333,56.21
3.914667,56.2
3.92,56.19
3.925333,56.22
3.930667,56.24
3.936,56.25
3.941333,56.26
3.946667,56.3
3.952,56.24
3.957333,56.27
3.962667,56.27
3.968,56.28
3.973333,56.26
3.978667,56.33
3.984,56.28
3.989333,56.21
3.994667,56.19
4,56.17
4.005333,56.1
4.010667,56.19
4.016,56.26
4.021333,56.3
4.026667,56.32
4.032,56.3
4.037333,56.27
4.042667,56.32
4.048,56.29
4.053333,56.23
4.058667,56.28
4.064,56.25
4.069333,56.25
4.074667,56.28
4.08,56.33
4.085333,56.39
4.090667,56.37
4.096,56.38
4.101333,56.36
4.106667,56.48
4.112,56.52
4.117333,56.54
4.122667,56.54
4.128,56.52
4.133333,56.64
4.138667,56.73
4.144,56.76
4.149333,56.75
4.154667,56.73
4.16,56.78
4.165333,56.86
4.170667,56.91
4.176,56.87
4.181333,56.84
4.186667,56.79
4.192,56.74
4.197333,56.67
4.202667,56.7
4.208,56.66
4.213333,56.64
4.218667,56.57
4.224,56.62
4.229333,56.56
4.234667,56.49
4.24,56.48
4.245333,56.42
4.250667,56.39
4.256,56.37
4.261333,56.3
4.266667,56.29
4.272,56.34
4.277333,56.33
4.282667,56.35
4.288,56.37
4.293333,56.41
4.298667,56.41
4.304,56.47
4.309333,56.4
4.314667,56.41
4.32,56.45
4.325333,56.45
4.330667,56.46
4.336,56.45
4.341333,56.41
4.346667,56.39
4.352,56.43
4.357333,56.41
4.362667,56.36
4.368,56.32
4.373333,56.27
4.378667,56.29
4.384,56.27
4.389333,56.2
4.394667,56.15
4.4,56.14
4.405333,56.04
4.410667,55.99
4.416,56.09
4.421333,56.09
4.426667,56.05
4.432,56.12
4.437333,56.08
4.442667,56.02
4.448,55.99
4.453333,55.99
4.458667,56.01
4.464,56.02
4.469333,56.03
4.474667,55.99
4.48,56.07
4.485333,56.12
4.490667,56.25
4.496,56.36
4.501333,56.37
4.506667,56.46
4.512,56.55
4.517333,56.63
4.522667,56.8
4.528,56.93
4.533333,57
4.538667,57.01
4.544,56.97
4.549333,56.9
4.554667,56.85
4.56,56.83
4.565333,56.77
4.570667,56.78
4.576,56.82
4.581333,56.84
4.586667,56.88
4.592,56.87
4.597333,56.86
4.602667,56.85
4.608,56.81
4.613333,56.82
4.618667,56.8
4.624,56.74
4.629333,56.7
4.634667,56.85
4.64,56.78
4.645333,56.73
4.650667,56.72
4.656,56.76
4.661333,56.71
4.666667,56.68
4.672,56.63
4.677333,56.62
4.682667,56.6
4.688,56.53
4.693333,56.64
4.698667,56.65
4.704,56.6
4.709333,56.73
4.714667,56.74
4.72,56.77
4.725333,56.86
4.730667,56.84
4.736,56.84
4.741333,56.76
4.746667,56.69
4.752,56.61
4.757333,56.58
4.762667,56.53
4.768,56.59
4.773333,56.52
4.778667,56.45
4.784,56.49
4.789333,56.54
4.794667,56.6
4.8,56.57
4.805333,56.51
4.810667,56.45
4.816,56.38
4.821333,56.43
4.826667,56.42
4.832,56.43
4.837333,56.4
4.842667,56.37
4.848,56.33
4.853333,56.3
4.858667,56.29
4.864,56.21
4.869333,56.26
4.874667,56.2
4.88,56.15
4.885333,56.15
4.890667,56.15
4.896,56.14
4.901333,56.08
4.906667,56.01
4.912,56.03
4.917333,55.96
4.922667,55.92
4.928,55.91
4.933333,55.88
4.938667,55.85
4.944,55.83
4.949333,55.77
4.954667,55.74
4.96,55.73
4.965333,55.73
4.970667,55.75
4.976,55.75
4.981333,55.68
4.986667,55.72
4.992,55.75
4.997333,55.73
5.002667,55.82
5.008,55.81
5.013333,56.07
5.018667,56.19
5.024,56.32
5.029333,56.46
5.034667,56.67
5.04,56.79
5.045333,56.79
5.050667,56.85
5.056,56.91
5.061333,57.04
5.066667,57.08
5.072,57.15
5.077333,57.14
5.082667,57.24
5.088,57.25
5.093333,57.42
5.098667,57.49
5.104,57.48
5.109333,57.63
5.114667,57.68
5.12,57.8
5.125333,57.98
5.130667,57.94
5.136,58.01
5.141333,58.04
5.146667,58.05
5.152,58.07
5.157333,58.13
5.162667,58.14
5.168,58.15
5.173333,58.2
5.178667,58.24
5.184,58.23
5.189333,58.22
5.194667,58.2
5.2,58.21
5.205333,58.13
5.210667,58.07
5.216,58.04
5.221333,58.06
5.226667,58.01
5.232,57.94
5.237333,57.85
5.242667,57.76
5.248,57.82
5.253333,57.76
5.258667,57.94
5.264,57.89
5.269333,57.92
5.274667,57.96
5.28,58.01
5.285333,57.94
5.290667,57.91
5.296,57.94
5.301333,58.06
5.306667,58.1
5.312,58.18
5.317333,58.14
5.322667,58.21
5.328,58.13
5.333333,58.04
5.338667,58.12
5.344,58.2
5.349333,58.12
5.354667,58.1
5.36,58.08
5.365333,58.1
5.370667,58.07
5.376,58
5.381333,57.98
5.386667,57.95
5.392,57.9
5.397333,57.84
5.402667,57.91
5.408,57.88
5.413333,57.86
5.418667,57.89
5.424,57.9
5.429333,57.89
5.434667,57.83
5.44,57.81
5.445333,57.92
5.450667,58.06
5.456,58.01
5.461333,57.98
5.466667,57.99
5.472,57.96
5.477333,57.91
5.482667,57.9
5.488,57.9
5.493333,57.99
5.498667,58.01
5.504,58
5.509333,57.96
5.514667,57.94
5.52,57.91
5.525333,57.9
5.530667,57.89
5.536,57.86
5.541333,57.78
5.546667,57.76
5.552,57.69
5.557333,57.66
5.562667,57.63
5.568,57.74
5.573333,57.64
5.578667,57.59
5.584,57.55
5.589333,57.48
5.594667,57.42
5.6,57.38
5.605333,57.37
5.610667,57.32
5.616,57.24
5.621333,57.23
5.626667,57.21
5.632,57.3
5.637333,57.22
5.642667,57.14
5.648,57.13
5.653333,57.13
5.658667,57.11
5.664,57.11
5.669333,57.1
5.674667,57.12
5.68,57.14
5.685333,57.14
5.690667,57.08
5.696,57.05
5.701333,57
5.706667,56.95
5.712,56.92
5.717333,56.84
5.722667,56.8
5.728,56.8
5.733333,56.82
5.738667,56.78
5.744,56.73
5.749333,56.67
5.754667,56.69
5.76,56.64
5.765333,56.67
5.770667,56.7
5.776,56.77
5.781333,56.85
5.786667,56.86
5.792,56.78
5.797333,56.73
5.802667,56.7
5.808,56.68
5.813333,56.59
5.818667,56.55
5.824,56.51
5.829333,56.49
5.834667,56.44
5.84,56.44
5.845333,56.39
5.850667,56.42
5.856,56.41
5.861333,56.43
5.866667,56.42
5.872,56.45
5.877333,56.44
5.882667,56.46
5.888,56.39
5.893333,56.48
5.898667,56.44
5.904,56.46
5.909333,56.57
5.914667,56.58
5.92,56.53
5.925333,56.48
5.930667,56.57
5.936,56.63
5.941333,56.74
5.946667,56.71
5.952,56.68
5.957333,56.6
5.962667,56.6
5.968,56.58
5.973333,56.57
5.978667,56.61
5.984,56.56
5.989333,56.59
5.994667,56.59
6,56.61
6.005333,56.64
6.010667,56.59
6.016,56.54
6.021333,56.47
6.026667,56.45
6.032,56.52
6.037333,56.49
6.042667,56.43
6.048,56.37
6.053333,56.34
6.058667,56.35
6.064,56.38
6.069333,56.39
6.074667,56.38
6.08,56.39
6.085333,56.41
6.090667,56.47
6.096,56.51
6.101333,56.57
6.106667,56.69
6.112,56.74
6.117333,56.79
6.122667,56.78
6.128,56.76
6.133333,56.78
6.138667,56.77
6.144,56.73
6.149333,56.71
6.154667,56.74
6.16,56.72
6.165333,56.72
6.170667,56.69
6.176,56.68
6.181333,56.65
6.186667,56.62
6.192,56.69
6.197333,56.71
6.202667,56.7
6.208,56.78
6.213333,56.8
6.218667,56.81
6.224,56.8
6.229333,56.75
6.234667,56.77
6.24,56.78
6.245333,56.74
6.250667,56.73
6.256,56.68
6.261333,56.68
6.266667,56.63
6.272,56.57
6.277333,56.56
6.282667,56.53
6.288,56.6
6.293333,56.56
6.298667,56.61
6.304,56.6
6.309333,56.59
6.314667,56.62
6.32,56.7
6.325333,56.65
6.330667,56.66
6.336,56.63
6.341333,56.56
6.346667,56.58
6.352,56.55
6.357333,56.51
6.362667,56.55
6.368,56.57
6.373333,56.63
6.378667,56.67
6.384,56.81
6.389333,56.88
6.394667,56.95
6.4,57.1
6.405333,57.15
6.410667,57.19
6.416,57.21
6.421333,57.34
6.426667,57.35
6.432,57.29
6.437333,57.37
6.442667,57.4
6.448,57.34
6.453333,57.31
6.458667,57.33
6.464,57.3
6.469333,57.31
6.474667,57.32
6.48,57.29
6.485333,57.19
6.490667,57.12
6.496,57.12
6.501333,57.09
6.506667,57
6.512,56.92
6.517333,56.86
6.522667,56.83
6.528,56.82
6.533333,56.86
6.538667,56.94
6.544,56.91
6.549333,56.88
6.554667,56.8
6.56,56.74
6.565333,56.7
6.570667,56.72
6.576,56.74
6.581333,56.76
6.586667,56.75
6.592,56.79
6.597333,56.81
6.602667,56.88
6.608,56.93
6.613333,57.04
6.618667,57
6.624,57.04
6.629333,56.99
6.634667,57.11
6.64,57.23
6.645333,57.38
6.650667,57.46
6.656,57.55
6.661333,57.54
6.666667,57.58
6.672,57.65
6.677333,57.63
6.682667,57.67
6.688,57.71
6.693333,57.7
6.698667,57.68
6.704,57.62
6.709333,57.55
6.714667,57.47
6.72,57.46
6.725333,57.48
6.730667,57.45
6.736,57.37
6.741333,57.3
6.746667,57.25
6.752,57.23
6.757333,57.24
6.762667,57.2
6.768,57.15
6.773333,57.12
6.778667,57.12
6.784,57.11
6.789333,57.03
6.794667,56.97
6.8,56.96
6.805333,56.94
6.810667,56.92
6.816,56.88
6.821333,56.94
6.826667,56.89
6.832,56.88
6.837333,56.96
6.842667,56.96
6.848,56.92
6.853333,56.96
6.858667,56.84
6.864,56.91
6.869333,56.97
6.874667,57.04
6.88,57.05
6.885333,57.06
6.890667,57.06
6.896,57.04
6.901333,57.15
6.906667,57.15
6.912,57.21
6.917333,57.15
6.922667,57.22
6.928,57.45
6.933333,57.82
6.938667,58.1
6.944,58.29
6.949333,58.56
6.954667,58.71
6.96,58.87
6.965333,58.96
6.970667,59.13
6.976,59.25
6.981333,59.31
6.986667,59.4
6.992,59.46
6.997333,59.47
7.002667,59.47
7.008,59.43
7.013333,59.4
7.018667,59.41
7.024,59.43
7.029333,59.4
7.034667,59.42
7.04,59.43
7.045333,59.42
7.050667,59.42
7.056,59.4
7.061333,59.3
7.066667,59.2
7.072,59.17
7.077333,59.16
7.082667,59.12
7.088,59.1
7.093333,59.09
7.098667,59.01
7.104,59.01
7.109333,59
7.114667,58.98
7.12,58.94
7.125333,58.95
7.130667,59
7.136,59.01
7.141333,59.22
7.146667,59.47
7.152,59.57
7.157333,59.7
7.162667,59.77
7.168,59.8
7.173333,59.78
7.178667,59.71
7.184,59.69
7.189333,59.64
7.194667,59.69
7.2,59.73
7.205333,59.67
7.210667,59.72
7.216,59.72
7.221333,59.72
7.226667,59.65
7.232,59.7
7.237333,59.73
7.242667,59.71
7.248,59.67
7.253333,59.69
7.258667,59.61
7.264,59.62
7.269333,59.67
7.274667,59.62
7.28,59.55
7.285333,59.49
7.290667,59.45
7.296,59.45
7.301333,59.46
7.306667,59.46
7.312,59.54
7.317333,59.49
7.322667,59.46
7.328,59.44
7.333333,59.44
7.338667,59.46
7.344,59.41
7.349333,59.43
7.354667,59.34
7.36,59.29
7.365333,59.26
7.370667,59.22
7.376,59.14
7.381333,59.09
7.386667,59.02
7.392,58.99
7.397333,58.9
7.402667,58.84
7.408,58.78
7.413333,58.8
7.418667,58.79
7.424,58.8
7.429333,58.7
7.434667,58.61
7.44,58.57
7.445333,58.52
7.450667,58.51
7.456,58.51
7.461333,58.46
7.466667,58.43
7.472,58.42
7.477333,58.52
7.482667,58.49
7.488,58.5
7.493333,58.54
7.498667,58.52
7.504,58.49
7.509333,58.46
7.514667,58.42
7.52,58.35
7.525333,58.3
7.530667,58.28
7.536,58.23
7.541333,58.28
7.546667,58.34
7.552,58.37
7.557333,58.4
7.562667,58.43
7.568,58.43
7.573333,58.41
7.578667,58.42
7.584,58.44
7.589333,58.49
7.594667,58.58
7.6,58.62
7.605333,58.67
7.610667,58.67
7.616,58.63
7.621333,58.53
7.626667,58.49
7.632,58.43
7.637333,58.4
7.642667,58.4
7.648,58.4
7.653333,58.4
7.658667,58.38
7.664,58.48
7.669333,58.44
7.674667,58.34
7.68,58.36
7.685333,58.37
7.690667,58.38
7.696,58.35
7.701333,58.29
7.706667,58.24
7.712,58.2
7.717333,58.19
7.722667,58.13
7.728,58.05
7.733333,57.99
7.738667,57.95
7.744,57.89
7.749333,57.82
7.754667,57.79
7.76,57.76
7.765333,57.73
7.770667,57.66
7.776,57.57
7.781333,57.56
7.786667,57.5
7.792,57.42
7.797333,57.38
7.802667,57.37
7.808,57.3
7.813333,57.31
7.818667,57.29
7.824,57.26
7.829333,57.2
7.834667,57.14
7.84,57.08
7.845333,57.15
7.850667,57.13
7.856,57.13
7.861333,57.16
7.866667,57.21
7.872,57.21
7.877333,57.19
7.882667,57.21
7.888,57.18
7.893333,57.17
7.898667,57.2
7.904,57.22
7.909333,57.23
7.914667,57.24
7.92,57.25
7.925333,57.2
7.930667,57.21
7.936,57.23
7.941333,57.22
7.946667,57.31
7.952,57.33
7.957333,57.35
7.962667,57.32
7.968,57.31
7.973333,57.38
7.978667,57.45
7.984,57.52
7.989333,57.67
7.994667,57.91
8,57.94
8.005333,57.97
8.010667,57.98
8.016,57.99
8.021333,58.02
8.026667,58.06
8.032,58.04
8.037333,58.03
8.042667,58
8.048,57.98
8.053333,58.07
8.058667,58.04
8.064,58.02
8.069333,58.04
8.074667,58.02
8.08,57.97
8.085333,57.92
8.090667,57.87
8.096,57.9
8.101333,57.85
8.106667,57.78
8.112,57.79
8.117333,57.75
8.122667,57.78
8.128,57.78
8.133333,57.72
8.138667,57.73
8.144,57.72
8.149333,57.71
8.154667,57.65
8.16,57.65
8.165333,57.61
8.170667,57.58
8.176,57.53
8.181333,57.53
8.186667,57.46
8.192,57.45
8.197333,57.42
8.202667,57.4
8.208,57.34
8.213333,57.34
8.218667,57.34
8.224,57.32
8.229333,57.27
8.234667,57.28
8.24,57.24
8.245333,57.23
8.250667,57.3
8.256,57.32
8.261333,57.36
8.266667,57.37
8.272,57.41
8.277333,57.45
8.282667,57.54
8.288,57.51
8.293333,57.58
8.298667,57.55
8.304,57.61
8.309333,57.61
8.314667,57.54
8.32,57.49
8.325333,57.43
8.330667,57.36
8.336,57.33
8.341333,57.28
8.346667,57.22
8.352,57.18
8.357333,57.21
8.362667,57.19
8.368,57.19
8.373333,57.11
8.378667,57.12
8.384,57.05
8.389333,57.09
8.394667,57.12
8.4,57.06
8.405333,57
8.410667,56.93
8.416,56.93
8.421333,56.87
8.426667,56.84
8.432,56.85
8.437333,56.82
8.442667,56.73
8.448,56.68
8.453333,56.66
8.458667,56.66
8.464,56.62
8.469333,56.69
8.474667,56.66
8.48,56.63
8.485333,56.69
8.490667,56.74
8.496,56.86
8.501333,57.12
8.506667,57.32
8.512,57.31
8.517333,57.35
8.522667,57.34
8.528,57.36
8.533333,57.43
8.538667,57.49
8.544,57.49
8.549333,57.49
8.554667,57.47
8.56,57.45
8.565333,57.42
8.570667,57.33
8.576,57.34
8.581333,57.26
8.586667,57.21
8.592,57.17
8.597333,57.11
8.602667,57.1
8.608,57.14
8.613333,57.1
8.618667,57.06
8.624,57
8.629333,56.98
8.634667,56.93
8.64,56.94
8.645333,56.99
8.650667,56.94
8.656,56.91
8.661333,56.89
8.666667,56.91
8.672,56.91
8.677333,56.87
8.682667,56.94
8.688,56.9
8.693333,56.84
8.698667,56.79
8.704,56.83
8.709333,56.95
8.714667,56.98
8.72,56.96
8.725333,56.89
8.730667,56.87
8.736,56.79
8.741333,56.82
8.746667,56.82
8.752,56.73
8.757333,56.74
8.762667,56.67
8.768,56.65
8.773333,56.77
8.778667,56.8
8.784,56.81
8.789333,56.82
8.794667,56.94
8.8,56.93
8.805333,56.93
8.810667,56.97
8.816,56.97
8.821333,56.95
8.826667,56.9
8.832,57
8.837333,56.99
8.842667,57.03
8.848,57.02
8.853333,56.99
8.858667,56.98
8.864,56.96
8.869333,56.9
8.874667,56.83
8.88,56.73
8.885333,56.66
8.890667,56.63
8.896,56.69
8.901333,56.71
8.906667,56.68
8.912,56.6
8.917333,56.61
8.922667,56.6
8.928,56.54
8.933333,56.51
8.938667,56.47
8.944,56.53
8.949333,56.55
8.954667,56.56
8.96,56.54
8.965333,56.5
8.970667,56.73
8.976,56.83
8.981333,56.78
8.986667,56.77
8.992,56.82
8.997333,56.86
9.002667,56.9
9.008,56.92
9.013333,56.95
9.018667,56.95
9.024,57
9.029333,56.98
9.034667,56.98
9.04,56.9
9.045333,56.93
9.050667,56.87
9.056,56.89
9.061333,56.82
9.066667,56.73
9.072,56.72
9.077333,56.73
9.082667,56.72
9.088,56.72
9.093333,56.7
9.098667,56.73
9.104,56.67
9.109333,56.67
9.114667,56.7
9.12,56.84
9.125333,56.8
9.130667,56.74
9.136,56.76
9.141333,56.71
9.146667,56.67
9.152,56.73
9.157333,56.65
9.162667,56.61
9.168,56.55
9.173333,56.47
9.178667,56.52
9.184,56.54
9.189333,56.5
9.194667,56.46
9.2,56.48
9.205333,56.41
9.210667,56.4
9.216,56.35
9.221333,56.26
9.226667,56.25
9.232,56.17
9.237333,56.09
9.242667,56.04
9.248,56.03
9.253333,55.99
9.258667,55.98
9.264,55.92
9.269333,56.05
9.274667,56.02
9.28,55.98
9.285333,55.93
9.290667,55.9
9.296,55.87
9.301333,55.87
9.306667,55.85
9.312,55.84
9.317333,55.83
9.322667,55.85
9.328,55.84
9.333333,55.82
9.338667,55.84
9.344,55.9
9.349333,55.85
9.354667,55.79
9.36,55.86
9.365333,55.83
9.370667,55.91
9.376,55.97
9.381333,56.01
9.386667,56.1
9.392,56.07
9.397333,56.05
9.402667,56.07
9.408,56.12
9.413333,56.1
9.418667,56.1
9.424,56.24
9.429333,56.23
9.434667,56.25
9.44,56.28
9.445333,56.24
9.450667,56.22
9.456,56.23
9.461333,56.23
9.466667,56.18
9.472,56.14
9.477333,56.17
9.482667,56.25
9.488,56.29
9.493333,56.4
9.498667,56.47
9.504,56.45
9.509333,56.46
9.514667,56.43
9.52,56.4
9.525333,56.37
9.530667,56.35
9.536,56.38
9.541333,56.53
9.546667,56.51
9.552,56.49
9.557333,56.51
9.562667,56.5
9.568,56.61
9.573333,56.56
9.578667,56.64
9.584,56.6
9.589333,56.52
9.594667,56.53
9.6,56.54
9.605333,56.68
9.610667,56.67
9.616,56.75
9.621333,56.72
9.626667,56.67
9.632,56.7
9.637333,56.72
9.642667,56.67
9.648,56.65
9.653333,56.71
9.658667,56.77
9.664,56.8
9.669333,56.79
9.674667,56.74
9.68,56.73
9.685333,56.69
9.690667,56.63
9.696,56.64
9.701333,56.64
9.706667,56.69
9.712,56.72
9.717333,56.69
9.722667,56.72
9.728,56.7
9.733333,56.77
9.738667,56.72
9.744,56.66
9.749333,56.57
9.754667,56.53
9.76,56.65
9.765333,56.63
9.770667,56.63
9.776,56.64
9.781333,56.67
9.786667,56.66
9.792,56.71
9.797333,56.74
9.802667,56.8
9.808,56.79
9.813333,56.78
9.818667,56.8
9.824,56.74
9.829333,56.73
9.834667,56.7
9.84,56.73
9.845333,56.71
9.850667,56.62
9.856,56.57
9.861333,56.56
9.866667,56.5
9.872,56.47
9.877333,56.58
9.882667,56.62
9.888,56.63
9.893333,56.55
9.898667,56.53
9.904,56.52
9.909333,56.43
9.914667,56.4
9.92,56.45
9.925333,56.45
9.930667,56.45
9.936,56.41
9.941333,56.36
9.946667,56.35
9.952,56.49
9.957333,56.52
9.962667,56.54
9.968,56.45
9.973333,56.41
9.978667,56.36
9.984,56.33
9.989333,56.28
9.994667,56.27
10,56.4
10.005333,56.42
10.010667,56.42
10.016,56.37
10.021333,56.36
10.026667,56.4
10.032,56.42
10.037333,56.42
10.042667,56.51
10.048,56.45
10.053333,56.52
10.058667,56.48
10.064,56.47
10.069333,56.47
10.074667,56.54
10.08,56.57
10.085333,56.58
10.090667,56.54
10.096,56.62
10.101333,56.6
10.106667,56.54
10.112,56.6
10.117333,56.67
10.122667,56.82
10.128,56.87
10.133333,56.87
10.138667,56.9
10.144,56.92
10.149333,56.91
10.154667,56.91
10.16,56.93
10.165333,56.93
10.170667,56.96
10.176,56.91
10.181333,56.89
10.186667,56.85
10.192,56.83
10.197333,56.95
10.202667,56.89
10.208,56.89
10.213333,56.88
10.218667,56.92
10.224,56.86
10.229333,56.84
10.234667,56.84
10.24,56.84
10.245333,56.79
10.250667,56.73
10.256,56.87
10.261333,56.89
10.266667,56.93
10.272,56.89
10.277333,56.91
10.282667,56.88
10.288,56.88
10.293333,56.9
10.298667,56.91
10.304,56.94
10.309333,56.94
10.314667,56.98
10.32,57.02
10.325333,57.11
10.330667,57.25
10.336,57.33
10.341333,57.42
10.346667,57.42
10.352,57.51
10.357333,57.55
10.362667,57.46
10.368,57.52
10.373333,57.53
10.378667,57.47
10.384,57.5
10.389333,57.58
10.394667,57.55
10.4,57.51
10.405333,57.5
10.410667,57.42
10.416,57.44
10.421333,57.37
10.426667,57.39
10.432,57.38
10.437333,57.36
10.442667,57.34
10.448,57.34
10.453333,57.32
10.458667,57.26
10.464,57.22
10.469333,57.24
10.474667,57.31
10.48,57.28
10.485333,57.3
10.490667,57.32
10.496,57.32
10.501333,57.41
10.506667,57.44
10.512,57.55
10.517333,57.49
10.522667,57.47
10.528,57.44
10.533333,57.48
10.538667,57.45
10.544,57.46
10.549333,57.37
10.554667,57.32
10.56,57.31
10.565333,57.52
10.570667,57.56
10.576,57.51
10.581333,57.51
10.586667,57.56
10.592,57.64
10.597333,57.69
10.602667,57.74
10.608,57.78
10.613333,57.8
10.618667,57.82
10.624,57.84
10.629333,57.81
10.634667,57.8
10.64,57.83
10.645333,57.85
10.650667,57.86
10.656,57.93
10.661333,57.97
10.666667,58.05
10.672,58.12
10.677333,58.22
10.682667,58.24
10.688,58.26
10.693333,58.24
10.698667,58.28
10.704,58.26
10.709333,58.27
10.714667,58.36
10.72,58.36
10.725333,58.31
10.730667,58.3
10.736,58.27
10.741333,58.22
10.746667,58.24
10.752,58.2
10.757333,58.21
10.762667,58.22
10.768,58.34
10.773333,58.32
10.778667,58.48
10.784,58.45
10.789333,58.46
10.794667,58.49
10.8,58.51
10.805333,58.5
10.810667,58.51
10.816,58.51
10.821333,58.56
10.826667,58.65
10.832,58.63
10.837333,58.6
10.842667,58.54
10.848,58.52
10.853333,58.52
10.858667,58.58
10.864,58.51
10.869333,58.52
10.874667,58.45
10.88,58.42
10.885333,58.47
10.890667,58.47
10.896,58.55
10.901333,58.64
10.906667,58.64
10.912,58.83
10.917333,58.99
10.922667,59.11
10.928,59.25
10.933333,59.26
10.938667,59.26
10.944,59.21
10.949333,59.23
10.954667,59.22
10.96,59.23
10.965333,59.2
10.970667,59.18
10.976,59.17
10.981333,59.13
10.986667,59.09
10.992,59.04
10.997333,59
11.002667,58.99
11.008,58.97
11.013333,59.06
11.018667,59.07
11.024,59.14
11.029333,59.26
11.034667,59.35
11.04,59.33
11.045333,59.33
11.050667,59.43
11.056,59.39
11.061333,59.39
11.066667,59.3
11.072,59.25
11.077333,59.22
11.082667,59.28
11.088,59.32
11.093333,59.25
11.098667,59.21
11.104,59.24
11.109333,59.34
11.114667,59.33
11.12,59.34
11.125333,59.32
11.130667,59.37
11.136,59.41
11.141333,59.43
11.146667,59.54
11.152,59.54
11.157333,59.56
11.162667,59.5
11.168,59.46
11.173333,59.4
11.178667,59.35
11.184,59.29
11.189333,59.24
11.194667,59.22
11.2,59.16
11.205333,59.1
11.210667,59.03
11.216,58.95
11.221333,58.91
11.226667,58.82
11.232,58.86
11.237333,58.8
11.242667,58.76
11.248,58.72
11.253333,58.72
11.258667,58.73
11.264,58.69
11.269333,58.78
11.274667,58.8
11.28,58.87
11.285333,58.87
11.290667,58.86
11.296,58.89
11.301333,58.85
11.306667,58.8
11.312,58.77
11.317333,58.74
11.322667,58.88
11.328,58.92
11.333333,58.93
11.338667,58.88
11.344,58.79
11.349333,58.78
11.354667,58.79
11.36,58.74
11.365333,58.67
11.370667,58.66
11.376,58.64
11.381333,58.61
11.386667,58.65
11.392,58.7
11.397333,58.66
11.402667,58.67
11.408,58.62
11.413333,58.57
11.418667,58.53
11.424,58.48
11.429333,58.49
11.434667,58.47
11.44,58.43
11.445333,58.4
11.450667,58.41
11.456,58.4
11.461333,58.38
11.466667,58.35
11.472,58.42
11.477333,58.48
11.482667,58.5
11.488,58.48
11.493333,58.39
11.498667,58.37
11.504,58.37
11.509333,58.35
11.514667,58.37
11.52,58.38
11.525333,58.41
11.530667,58.45
11.536,58.48
11.541333,58.49
11.546667,58.43
11.552,58.44
11.557333,58.4
11.562667,58.35
11.568,58.3
11.573333,58.32
11.578667,58.36
11.584,58.32
11.589333,58.28
11.594667,58.35
11.6,58.36
11.605333,58.25
11.610667,58.17
11.616,58.12
11.621333,58.1
11.626667,58.13
11.632,58.07
11.637333,58.07
11.642667,58.06
11.648,58.06
11.653333,58.09
11.658667,58.1
11.664,58.15
11.669333,58.18
11.674667,58.21
11.68,58.23
11.685333,58.23
11.690667,58.23
11.696,58.2
11.701333,58.29
11.706667,58.31
11.712,58.37
11.717333,58.39
11.722667,58.41
11.728,58.44
11.733333,58.45
11.738667,58.45
11.744,58.46
11.749333,58.48
11.754667,58.43
11.76,58.44
11.765333,58.49
11.770667,58.45
11.776,58.44
11.781333,58.5
11.786667,58.5
11.792,58.47
11.797333,58.54
11.802667,58.49
11.808,58.43
11.813333,58.44
11.818667,58.46
11.824,58.56
11.829333,58.55
11.834667,58.61
11.84,58.61
11.845333,58.61
11.850667,58.6
11.856,58.63
11.861333,58.66
11.866667,58.65
11.872,58.76
11.877333,58.83
11.882667,58.94
11.888,59.07
11.893333,59.05
11.898667,59.16
11.904,59.15
11.909333,59.16
11.914667,59.14
11.92,59.17
11.925333,59.14
11.930667,59.08
11.936,59.07
11.941333,59.06
11.946667,59.07
11.952,59.01
11.957333,58.94
11.962667,58.95
11.968,58.98
11.973333,58.99
11.978667,58.95
11.984,58.93
11.989333,58.97
11.994667,58.95
12,58.93
12.005333,58.9
12.010667,58.95
12.016,58.92
12.021333,59.02
12.026667,59.09
12.032,59.16
12.037333,59.2
12.042667,59.16
12.048,59.14
12.053333,59.09
12.058667,59.06
12.064,59.05
12.069333,58.99
12.074667,58.94
12.08,58.93
12.085333,58.88
12.090667,58.83
12.096,58.83
12.101333,58.83
12.106667,58.82
12.112,58.75
12.117333,58.75
12.122667,58.69
12.128,58.69
12.133333,58.63
12.138667,58.57
12.144,58.54
12.149333,58.49
12.154667,58.45
12.16,58.4
12.165333,58.42
12.170667,58.38
12.176,58.46
12.181333,58.44
12.186667,58.36
12.192,58.41
12.197333,58.42
12.202667,58.42
12.208,58.55
12.213333,58.56
12.218667,58.54
12.224,58.54
12.229333,58.61
12.234667,58.68
12.24,58.76
12.245333,58.79
12.250667,58.73
12.256,58.74
12.261333,58.65
12.266667,58.64
12.272,58.59
12.277333,58.6
12.282667,58.69
12.288,58.63
12.293333,58.62
12.298667,58.61
12.304,58.69
12.309333,58.65
12.314667,58.77
12.32,58.96
12.325333,59
12.330667,58.94
12.336,58.89
12.341333,58.94
12.346667,58.88
12.352,58.85
12.357333,58.86
12.362667,58.8
12.368,58.76
12.373333,58.68
12.378667,58.7
12.384,58.69
12.389333,58.72
12.394667,58.66
12.4,58.59
12.405333,58.55
12.410667,58.53
12.416,58.48
12.421333,58.41
12.426667,58.37
12.432,58.31
12.437333,58.27
12.442667,58.28
12.448,58.29
12.453333,58.22
12.458667,58.16
12.464,58.17
12.469333,58.13
12.474667,58.07
12.48,57.99
12.485333,58.02
12.490667,58.01
12.496,57.96
12.501333,58.01
12.506667,58.02
12.512,57.95
12.517333,57.94
12.522667,57.96
12.528,57.97
12.533333,58
12.538667,58.06
12.544,58.05
12.549333,58.01
12.554667,57.94
12.56,57.9
12.565333,57.96
12.570667,57.95
12.576,57.98
12.581333,58.02
12.586667,58.04
12.592,58.12
12.597333,58.07
12.602667,58.01
12.608,57.97
12.613333,58.02
12.618667,58.02
12.624,58.02
12.629333,58.08
12.634667,58.09
12.64,58.09
12.645333,58.17
12.650667,58.23
12.656,58.27
12.661333,58.32
12.666667,58.43
12.672,58.47
12.677333,58.48
12.682667,58.44
12.688,58.42
12.693333,58.39
12.698667,58.45
12.704,58.44
12.709333,58.42
12.714667,58.41
12.72,58.36
12.725333,58.47
12.730667,58.65
12.736,58.76
12.741333,58.82
12.746667,58.81
12.752,58.81
12.757333,58.82
12.762667,58.78
12.768,58.78
12.773333,58.76
12.778667,58.78
12.784,58.72
12.789333,58.63
12.794667,58.67
12.8,58.75
12.805333,58.88
12.810667,58.88
12.816,58.84
12.821333,58.79
12.826667,58.76
12.832,58.81
12.837333,58.79
12.842667,58.86
12.848,58.86
12.853333,58.79
12.858667,58.8
12.864,58.82
12.869333,58.91
12.874667,59
12.88,59.03
12.885333,59.05
12.890667,59.08
12.896,59.01
12.901333,59.11
12.906667,59.18
12.912,59.1
12.917333,59.05
12.922667,59.15
12.928,59.06
12.933333,59.03
12.938667,59.01
12.944,58.97
12.949333,58.91
12.954667,58.88
12.96,58.97
12.965333,58.91
12.970667,59
12.976,58.97
12.981333,58.98
12.986667,58.97
12.992,58.91
12.997333,58.91
13.002667,58.96
13.008,59.04
13.013333,58.98
13.018667,58.91
13.024,58.92
13.029333,58.96
13.034667,59.04
13.04,59.02
13.045333,59.03
13.050667,59.07
13.056,59.13
13.061333,59.11
13.066667,59.07
13.072,59.06
13.077333,59.08
13.082667,59.16
13.088,59.26
13.093333,59.32
13.098667,59.37
13.104,59.38
13.109333,59.36
13.114667,59.38
13.12,59.39
13.125333,59.41
13.130667,59.36
13.136,59.39
13.141333,59.43
13.146667,59.4
13.152,59.37
13.157333,59.33
13.162667,59.39
13.168,59.37
13.173333,59.44
13.178667,59.47
13.184,59.43
13.189333,59.4
13.194667,59.38
13.2,59.4
13.205333,59.38
13.210667,59.39
13.216,59.47
13.221333,59.52
13.226667,59.49
13.232,59.46
13.237333,59.5
13.242667,59.49
13.248,59.48
13.253333,59.44
13.258667,59.39
13.264,59.41
13.269333,59.46
13.274667,59.5
13.28,59.51
13.285333,59.5
13.290667,59.59
13.296,59.64
13.301333,59.57
13.306667,59.6
13.312,59.58
13.317333,59.57
13.322667,59.75
13.328,59.79
13.333333,59.72
13.338667,59.69
13.344,59.72
13.349333,59.75
13.354667,59.73
13.36,59.78
13.365333,59.77
13.370667,59.77
13.376,59.88
13.381333,59.87
13.386667,59.83
13.392,59.89
13.397333,59.94
13.402667,59.92
13.408,59.95
13.413333,60.01
13.418667,60.03
13.424,60.04
13.429333,60.04
13.434667,60.03
13.44,59.96
13.445333,59.92
13.450667,60
13.456,60.1
13.461333,60.05
13.466667,60.05
13.472,60.05
13.477333,60.09
13.482667,60.09
13.488,60.1
13.493333,60.14
13.498667,60.14
13.504,60.12
13.509333,60.13
13.514667,60.18
13.52,60.32
13.525333,60.38
13.530667,60.36
13.536,60.38
13.541333,60.47
13.546667,60.59
13.552,60.59
13.557333,60.56
13.562667,60.65
13.568,60.66
13.573333,60.69
13.578667,60.67
13.584,60.62
13.589333,60.67
13.594667,60.69
13.6,60.67
13.605333,60.65
13.610667,60.69
13.616,60.67
13.621333,60.66
13.626667,60.6
13.632,60.68
13.637333,60.74
13.642667,60.69
13.648,60.74
13.653333,60.78
13.658667,60.83
13.664,60.78
13.669333,60.9
13.674667,60.95
13.68,60.92
13.685333,60.9
13.690667,60.85
13.696,60.87
13.701333,60.95
13.706667,60.9
13.712,60.98
13.717333,61.01
13.722667,61.01
13.728,61.02
13.733333,61.06
13.738667,61.17
13.744,61.19
13.749333,61.26
13.754667,61.3
13.76,61.4
13.765333,61.39
13.770667,61.37
13.776,61.38
13.781333,61.38
13.786667,61.42
13.792,61.45
13.797333,61.54
13.802667,61.52
13.808,61.5
13.813333,61.55
13.818667,61.53
13.824,61.58
13.829333,61.68
13.834667,61.7
13.84,61.64
13.845333,61.6
13.850667,61.62
13.856,61.7
13.861333,61.68
13.866667,61.81
13.872,61.87
13.877333,61.85
13.882667,61.91
13.888,61.87
13.893333,61.85
13.898667,61.93
13.904,61.94
13.909333,62.02
13.914667,62.04
13.92,62.02
13.925333,62.03
13.930667,62.05
13.936,62.07
13.941333,62.08
13.946667,62.24
13.952,62.3
13.957333,62.35
13.962667,62.35
13.968,62.37
13.973333,62.31
13.978667,62.29
13.984,62.29
13.989333,62.32
13.994667,62.45
14,62.48
14.005333,62.41
14.010667,62.38
14.016,62.41
14.021333,62.39
14.026667,62.48
14.032,62.46
14.037333,62.48
14.042667,62.53
14.048,62.47
14.053333,62.49
14.058667,62.44
14.064,62.37
14.069333,62.34
14.074667,62.31
14.08,62.34
14.085333,62.45
14.090667,62.47
14.096,62.5
14.101333,62.47
14.106667,62.47
14.112,62.45
14.117333,62.4
14.122667,62.35
14.128,62.38
14.133333,62.43
14.138667,62.39
14.144,62.44
14.149333,62.45
14.154667,62.46
14.16,62.47
14.165333,62.5
14.170667,62.51
14.176,62.54
14.181333,62.47
14.186667,62.4
14.192,62.4
14.197333,62.46
14.202667,62.5
14.208,62.63
14.213333,62.65
14.218667,62.67
14.224,62.63
14.229333,62.63
14.234667,62.7
14.24,62.68
14.245333,62.74
14.250667,62.8
14.256,62.86
14.261333,62.9
14.266667,62.95
14.272,63
14.277333,63.09
14.282667,63.13
14.288,63.3
14.293333,63.44
14.298667,63.49
14.304,63.51
14.309333,63.53
14.314667,63.47
14.32,63.58
14.325333,63.62
14.330667,63.59
14.336,63.65
14.341333,63.65
14.346667,63.59
14.352,63.59
14.357333,63.55
14.362667,63.57
14.368,63.51
14.373333,63.43
14.378667,63.36
14.384,63.38
14.389333,63.42
14.394667,63.44
14.4,63.42
14.405333,63.33
14.410667,63.34
14.416,63.29
14.421333,63.25
14.426667,63.28
14.432,63.25
14.437333,63.23
14.442667,63.17
14.448,63.17
14.453333,63.2
14.458667,63.13
14.464,63.22
14.469333,63.26
14.474667,63.23
14.48,63.23
14.485333,63.22
14.490667,63.25
14.496,63.34
14.501333,63.31
14.506667,63.3
14.512,63.26
14.517333,63.21
14.522667,63.23
14.528,63.29
14.533333,63.25
14.538667,63.25
14.544,63.23
14.549333,63.18
14.554667,63.25
14.56,63.25
14.565333,63.24
14.570667,63.27
14.576,63.25
14.581333,63.21
14.586667,63.21
14.592,63.23
14.597333,63.23
14.602667,63.2
14.608,63.21
14.613333,63.18
14.618667,63.17
14.624,63.13
14.629333,63.21
14.634667,63.15
14.64,63.07
14.645333,63.11
14.650667,63.06
14.656,62.99
14.661333,63.02
14.666667,62.95
14.672,62.89
14.677333,62.85
14.682667,62.83
14.688,62.77
14.693333,62.76
14.698667,62.71
14.704,62.68
14.709333,62.64
14.714667,62.61
14.72,62.53
14.725333,62.48
14.730667,62.39
14.736,62.38
14.741333,62.32
14.746667,62.37
14.752,62.36
14.757333,62.44
14.762667,62.43
14.768,62.36
14.773333,62.33
14.778667,62.28
14.784,62.27
14.789333,62.24
14.794667,62.21
14.8,62.17
14.805333,62.11
14.810667,62.05
14.816,62.03
14.821333,61.98
14.826667,61.97
14.832,61.96
14.837333,62.09
14.842667,62.14
14.848,62.1
14.853333,62.02
14.858667,62.12
14.864,62.14
14.869333,62.1
14.874667,62.09
14.88,62.19
14.885333,62.23
14.890667,62.24
14.896,62.34
14.901333,62.36
14.906667,62.33
14.912,62.35
14.917333,62.38
14.922667,62.44
14.928,62.42
14.933333,62.36
14.938667,62.38
14.944,62.34
14.949333,62.32
14.954667,62.35
14.96,62.42
14.965333,62.41
14.970667,62.63
14.976,63.27
14.981333,63.31
14.986667,63.25
14.992,63.17
14.997333,63.12
15.002667,63.14
15.008,63.14
15.013333,63.28
15.018667,63.26
15.024,63.38
15.029333,63.37
15.034667,63.37
15.04,63.35
15.045333,63.45
15.050667,63.44
15.056,63.41
15.061333,63.45
15.066667,63.38
15.072,63.29
15.077333,63.22
15.082667,63.17
15.088,63.2
15.093333,63.19
15.098667,63.14
15.104,63.14
15.109333,63.18
15.114667,63.11
15.12,63.14
15.125333,63.11
15.130667,63.08
15.136,63.08
15.141333,63.08
15.146667,63.06
15.152,63
15.157333,62.94
15.162667,62.89
15.168,62.81
15.173333,62.74
15.178667,62.62
15.184,62.6
15.189333,62.55
15.194667,62.56
15.2,62.52
15.205333,62.53
15.210667,62.5
15.216,62.47
15.221333,62.53
15.226667,62.47
15.232,62.42
15.237333,62.39
15.242667,62.34
15.248,62.32
15.253333,62.38
15.258667,62.33
15.264,62.29
15.269333,62.25
15.274667,62.3
15.28,62.29
15.285333,62.27
15.290667,62.26
15.296,62.24
15.301333,62.19
15.306667,62.14
15.312,62.12
15.317333,62.07
15.322667,62.02
15.328,62.05
15.333333,62
15.338667,61.98
15.344,61.93
15.349333,61.93
15.354667,61.95
15.36,61.94
15.365333,61.94
15.370667,61.88
15.376,61.93
15.381333,61.89
15.386667,61.84
15.392,61.84
15.397333,61.85
15.402667,61.87
15.408,61.86
15.413333,61.87
15.418667,61.83
15.424,61.75
15.429333,61.75
15.434667,61.71
15.44,61.64
15.445333,61.55
15.450667,61.54
15.456,61.61
15.461333,61.61
15.466667,61.55
15.472,61.5
15.477333,61.4
15.482667,61.4
15.488,61.41
15.493333,61.38
15.498667,61.36
15.504,61.27
15.509333,61.23
15.514667,61.26
15.52,61.24
15.525333,61.31
15.530667,61.25
15.536,61.19
15.541333,61.16
15.546667,61.17
15.552,61.14
15.557333,61.07
15.562667,61.02
15.568,61.02
15.573333,61.01
15.578667,61.02
15.584,60.98
15.589333,60.93
15.594667,60.93
15.6,60.9
15.605333,60.87
15.610667,60.93
15.616,60.98
15.621333,61
15.626667,60.95
15.632,60.9
15.637333,61.02
15.642667,61.05
15.648,61.06
15.653333,61.08
15.658667,61.05
15.664,61.07
15.669333,61.09
15.674667,61.12
15.68,61.17
15.685333,61.18
15.690667,61.22
15.696,61.14
15.701333,61.15
15.706667,61.04
15.712,60.96
15.717333,60.94
15.722667,60.99
15.728,60.97
15.733333,61.04
15.738667,61.06
15.744,61.02
15.749333,60.96
15.754667,60.93
15.76,60.83
15.765333,60.82
15.770667,60.93
15.776,60.89
15.781333,60.9
15.786667,60.83
15.792,60.75
15.797333,60.76
15.802667,60.71
15.808,60.71
15.813333,60.62
15.818667,60.6
15.824,60.59
15.829333,60.54
15.834667,60.53
15.84,60.56
15.845333,60.53
15.850667,60.61
15.856,60.58
15.861333,60.67
15.866667,60.66
15.872,60.64
15.877333,60.63
15.882667,60.59
15.888,60.52
15.893333,60.49
15.898667,60.48
15.904,60.48
15.909333,60.43
15.914667,60.39
15.92,60.35
15.925333,60.35
15.930667,60.31
15.936,60.3
15.941333,60.26
15.946667,60.23
15.952,60.2
15.957333,60.19
15.962667,60.14
15.968,60.07
15.973333,60.09
15.978667,60.07
15.984,60
15.989333,60.01
15.994667,60.02
16,60.02
16.005333,60.16
16.010667,60.27
16.016,60.26
16.021333,60.2
16.026667,60.17
16.032,60.16
16.037333,60.23
16.042667,60.21
16.048,60.24
16.053333,60.23
16.058667,60.21
16.064,60.21
16.069333,60.22
16.074667,60.19
16.08,60.18
16.085333,60.17
16.090667,60.14
16.096,60.13
16.101333,60.07
16.106667,60.02
16.112,60.01
16.117333,59.98
16.122667,59.95
16.128,60
16.133333,60.08
16.138667,60.09
16.144,60.06
16.149333,60.01
16.154667,59.96
16.16,59.98
16.165333,59.97
16.170667,59.97
16.176,60
16.181333,60.01
16.186667,60.18
16.192,60.15
16.197333,60.12
16.202667,60.13
16.208,60.09
16.213333,60.04
16.218667,60.03
16.224,60.01
16.229333,60.03
16.234667,60.05
16.24,60.06
16.245333,60.04
16.250667,60.03
16.256,60.02
16.261333,60.04
16.266667,59.99
16.272,60.02
16.277333,60
16.282667,60.01
16.288,59.96
16.293333,59.9
16.298667,59.89
16.304,59.87
16.309333,59.82
16.314667,59.79
16.32,59.91
16.325333,60
16.330667,60.02
16.336,59.96
16.341333,59.89
16.346667,59.92
16.352,59.86
16.357333,59.82
16.362667,59.78
16.368,59.87
16.373333,59.81
16.378667,59.84
16.384,59.98
16.389333,60
16.394667,59.92
16.4,59.86
16.405333,59.82
16.410667,59.86
16.416,59.9
16.421333,59.91
16.426667,59.89
16.432,59.87
16.437333,59.89
16.442667,59.91
16.448,60.01
16.453333,60.04
16.458667,60.04
16.464,60.08
16.469333,60.05
16.474667,60.05
16.48,60.24
16.485333,60.21
16.490667,60.2
16.496,60.18
16.501333,60.17
16.506667,60.18
16.512,60.22
16.517333,60.16
16.522667,60.17
16.528,60.12
16.533333,60.07
16.538667,60.12
16.544,60.09
16.549333,60.06
16.554667,60
16.56,60.05
16.565333,60.16
16.570667,60.13
16.576,60.13
16.581333,60.16
16.586667,60.37
16.592,60.34
16.597333,60.32
16.602667,60.28
16.608,60.36
16.613333,60.32
16.618667,60.34
16.624,60.41
16.629333,60.39
16.634667,60.37
16.64,60.33
16.645333,60.39
16.650667,60.38
16.656,60.41
16.661333,60.62
16.666667,60.63
16.672,60.64
16.677333,60.7
16.682667,60.71
16.688,60.73
16.693333,60.77
16.698667,60.82
16.704,60.9
16.709333,60.85
16.714667,61.02
16.72,61.06
16.725333,61.06
16.730667,61.08
16.736,61.14
16.741333,61.19
16.746667,61.17
16.752,61.18
16.757333,61.13
16.762667,61.01
16.768,60.96
16.773333,60.89
16.778667,60.85
16.784,60.8
16.789333,60.82
16.794667,60.85
16.8,60.94
16.805333,60.94
16.810667,61.02
16.816,61.04
16.821333,61.02
16.826667,60.93
16.832,61.14
16.837333,61.07
16.842667,61.06
16.848,61.13
16.853333,61.19
16.858667,61.21
16.864,61.23
16.869333,61.2
16.874667,61.31
16.88,61.29
16.885333,61.36
16.890667,61.34
16.896,61.33
16.901333,61.38
16.906667,61.4
16.912,61.38
16.917333,61.44
16.922667,61.52
16.928,61.54
16.933333,61.51
16.938667,61.54
16.944,61.59
16.949333,61.61
16.954667,61.68
16.96,61.69
16.965333,61.71
16.970667,61.69
16.976,61.7
16.981333,61.77
16.986667,61.76
16.992,61.76
16.997333,61.75
17.002667,61.66
17.008,61.66
17.013333,61.72
17.018667,61.71
17.024,61.66
17.029333,61.74
17.034667,61.74
17.04,61.83
17.045333,61.85
17.050667,61.79
17.056,61.84
17.061333,62.01
17.066667,62.06
17.072,61.98
17.077333,61.96
17.082667,61.97
17.088,61.99
17.093333,61.98
17.098667,61.94
17.104,61.96
17.109333,61.93
17.114667,61.96
17.12,61.99
17.125333,61.97
17.130667,61.95
17.136,62.08
17.141333,62.05
17.146667,62.08
17.152,62.03
17.157333,61.99
17.162667,62.07
17.168,62.05
17.173333,62.05
17.178667,61.98
17.184,62.02
17.189333,62.01
17.194667,61.98
17.2,62
17.205333,62.04
17.210667,62.02
17.216,62.06
17.221333,62.15
17.226667,62.16
17.232,62.13
17.237333,62.12
17.242667,62.19
17.248,62.2
17.253333,62.23
17.258667,62.23
17.264,62.27
17.269333,62.21
17.274667,62.14
17.28,62.14
17.285333,62.15
17.290667,62.14
17.296,62.24
17.301333,62.28
17.306667,62.33
17.312,62.34
17.317333,62.33
17.322667,62.45
17.328,62.41
17.333333,62.47
17.338667,62.56
17.344,62.58
17.349333,62.56
17.354667,62.55
17.36,62.65
17.365333,62.58
17.370667,62.6
17.376,62.62
17.381333,62.58
17.386667,62.54
17.392,62.48
17.397333,62.53
17.402667,62.55
17.408,62.5
17.413333,62.47
17.418667,62.51
17.424,62.51
17.429333,62.49
17.434667,62.44
17.44,62.47
17.445333,62.43
17.450667,62.37
17.456,62.38
17.461333,62.38
17.466667,62.38
17.472,62.32
17.477333,62.28
17.482667,62.26
17.488,62.27
17.493333,62.26
17.498667,62.35
17.504,62.39
17.509333,62.35
17.514667,62.33
17.52,62.36
17.525333,62.45
17.530667,62.45
17.536,62.51
17.541333,62.44
17.546667,62.49
17.552,62.47
17.557333,62.57
17.562667,62.61
17.568,62.55
17.573333,62.58
17.578667,62.56
17.584,62.52
17.589333,62.48
17.594667,62.5
17.6,62.49
17.605333,62.45
17.610667,62.46
17.616,62.41
17.621333,62.41
17.626667,62.41
17.632,62.37
17.637333,62.39
17.642667,62.46
17.648,62.41
17.653333,62.38
17.658667,62.32
17.664,62.31
17.669333,62.23
17.674667,62.18
17.68,62.18
17.685333,62.11
17.690667,62.05
17.696,62.08
17.701333,62.11
17.706667,62.08
17.712,62.06
17.717333,62.06
17.722667,62.13
17.728,62.11
17.733333,62.12
17.738667,62.12
17.744,62.07
17.749333,61.97
17.754667,61.94
17.76,61.91
17.765333,61.92
17.770667,62.01
17.776,62.03
17.781333,62.01
17.786667,61.99
17.792,61.96
17.797333,62.08
17.802667,62.1
17.808,62.09
17.813333,62.15
17.818667,62.12
17.824,62.13
17.829333,62.1
17.834667,62.12
17.84,62.17
17.845333,62.19
17.850667,62.18
17.856,62.18
17.861333,62.15
17.866667,62.14
17.872,62.31
17.877333,62.44
17.882667,62.41
17.888,62.4
17.893333,62.38
17.898667,62.4
17.904,62.36
17.909333,62.35
17.914667,62.31
17.92,62.31
17.925333,62.25
17.930667,62.21
17.936,62.16
17.941333,62.14
17.946667,62.17
17.952,62.13
17.957333,62.15
17.962667,62.16
17.968,62.24
17.973333,62.36
17.978667,62.37
17.984,62.42
17.989333,62.45
17.994667,62.45
18,62.46
18.005333,62.41
18.010667,62.46
18.016,62.47
18.021333,62.49
18.026667,62.47
18.032,62.48
18.037333,62.54
18.042667,62.75
18.048,62.75
18.053333,62.75
18.058667,62.74
18.064,62.71
18.069333,62.68
18.074667,62.65
18.08,62.62
18.085333,62.58
18.090667,62.62
18.096,62.59
18.101333,62.56
18.106667,62.52
18.112,62.5
18.117333,62.51
18.122667,62.51
18.128,62.52
18.133333,62.5
18.138667,62.5
18.144,62.5
18.149333,62.51
18.154667,62.49
18.16,62.47
18.165333,62.47
18.170667,62.48
18.176,62.51
18.181333,62.5
18.186667,62.49
18.192,62.45
18.197333,62.46
18.202667,62.49
18.208,62.47
18.213333,62.51
18.218667,62.52
18.224,62.54
18.229333,62.5
18.234667,62.48
18.24,62.55
18.245333,62.58
18.250667,62.61
18.256,62.57
18.261333,62.62
18.266667,62.67
18.272,62.68
18.277333,62.64
18.282667,62.7
18.288,62.68
18.293333,62.7
18.298667,62.84
18.304,62.75
18.309333,62.7
18.314667,62.66
18.32,62.62
18.325333,62.63
18.330667,62.57
18.336,62.58
18.341333,62.53
18.346667,62.6
18.352,62.56
18.357333,62.52
18.362667,62.53
18.368,62.46
18.373333,62.44
18.378667,62.4
18.384,62.34
18.389333,62.33
18.394667,62.31
18.4,62.27
18.405333,62.24
18.410667,62.21
18.416,62.2
18.421333,62.27
18.426667,62.26
18.432,62.26
18.437333,62.29
18.442667,62.23
18.448,62.22
18.453333,62.29
18.458667,62.31
18.464,62.25
18.469333,62.27
18.474667,62.23
18.48,62.24
18.485333,62.27
18.490667,62.34
18.496,62.37
18.501333,62.34
18.506667,62.36
18.512,62.38
18.517333,62.43
18.522667,62.36
18.528,62.33
18.533333,62.38
18.538667,62.46
18.544,62.49
18.549333,62.46
18.554667,62.44
18.56,62.46
18.565333,62.48
18.570667,62.51
18.576,62.47
18.581333,62.43
18.586667,62.43
18.592,62.38
18.597333,62.35
18.602667,62.35
18.608,62.34
18.613333,62.37
18.618667,62.45
18.624,62.44
18.629333,62.43
18.634667,62.39
18.64,62.42
18.645333,62.53
18.650667,62.6
18.656,62.68
18.661333,62.72
18.666667,62.69
18.672,62.7
18.677333,62.77
18.682667,62.76
18.688,62.79
18.693333,62.75
18.698667,62.72
18.704,62.68
18.709333,62.64
18.714667,62.58
18.72,62.53
18.725333,62.45
18.730667,62.46
18.736,62.39
18.741333,62.35
18.746667,62.34
18.752,62.3
18.757333,62.3
18.762667,62.25
18.768,62.13
18.773333,62.07
18.778667,62.07
18.784,62.06
18.789333,62.06
18.794667,62.05
18.8,62.02
18.805333,61.96
18.810667,61.94
18.816,61.92
18.821333,61.88
18.826667,61.96
18.832,62.06
18.837333,62.06
18.842667,62.04
18.848,62.01
18.853333,61.99
18.858667,61.98
18.864,61.91
18.869333,61.82
18.874667,61.8
18.88,61.81
18.885333,61.84
18.890667,61.86
18.896,61.86
18.901333,61.82
18.906667,61.83
18.912,61.8
18.917333,61.82
18.922667,61.8
18.928,61.85
18.933333,61.9
18.938667,61.91
18.944,61.86
18.949333,61.88
18.954667,61.87
18.96,61.83
18.965333,61.83
18.970667,61.74
18.976,61.78
18.981333,61.89
18.986667,61.88
18.992,61.88
18.997333,61.84
19.002667,61.85
19.008,61.84
19.013333,61.83
19.018667,61.79
19.024,61.85
19.029333,61.83
19.034667,62
19.04,61.98
19.045333,62.01
19.050667,62
19.056,62
19.061333,61.94
19.066667,61.91
19.072,61.89
19.077333,61.87
19.082667,61.85
19.088,61.92
19.093333,61.98
19.098667,62.11
19.104,62.09
19.109333,62.22
19.114667,62.23
19.12,62.26
19.125333,62.3
19.130667,62.29
19.136,62.28
19.141333,62.36
19.146667,62.51
19.152,62.53
19.157333,62.59
19.162667,62.54
19.168,62.58
19.173333,62.68
19.178667,62.79
19.184,62.81
19.189333,62.9
19.194667,62.98
19.2,63.09
19.205333,63.18
19.210667,63.21
19.216,63.19
19.221333,63.15
19.226667,63.17
19.232,63.13
19.237333,63.15
19.242667,63.15
19.248,63.15
19.253333,63.17
19.258667,63.15
19.264,63.07
19.269333,63.02
19.274667,63.02
19.28,63
19.285333,62.96
19.290667,62.9
19.296,62.87
19.301333,62.82
19.306667,62.83
19.312,62.72
19.317333,62.73
19.322667,62.75
19.328,62.69
19.333333,62.66
19.338667,62.62
19.344,62.65
19.349333,62.64
19.354667,62.74
19.36,62.83
19.365333,62.85
19.370667,62.89
19.376,62.87
19.381333,62.84
19.386667,62.89
19.392,62.94
19.397333,62.94
19.402667,62.92
19.408,62.91
19.413333,63
19.418667,63.01
19.424,63.07
19.429333,63.31
19.434667,63.31
19.44,63.33
19.445333,63.31
19.450667,63.29
19.456,63.33
19.461333,63.32
19.466667,63.34
19.472,63.48
19.477333,63.45
19.482667,63.53
19.488,63.57
19.493333,63.62
19.498667,63.66
19.504,63.58
19.509333,63.54
19.514667,63.57
19.52,63.5
19.525333,63.48
19.530667,63.42
19.536,63.43
19.541333,63.46
19.546667,63.56
19.552,63.6
19.557333,63.6
19.562667,63.63
19.568,63.73
19.573333,63.82
19.578667,63.89
19.584,63.97
19.589333,64.04
19.594667,64.05
19.6,64.11
19.605333,64.11
19.610667,64.15
19.616,64.12
19.621333,64.13
19.626667,64.1
19.632,64.13
19.637333,64.29
19.642667,64.4
19.648,64.38
19.653333,64.42
19.658667,64.46
19.664,64.43
19.669333,64.51
19.674667,64.62
19.68,64.62
19.685333,64.59
