Time file:	R:\UCL_SSID\SSID_DATABASE\SSID_London\OFF_CamdenTown1_FULL_190502\OFF_CamdenTown1_BIN_190502\CamdenTown1_HDF\12-20_7.hdf
Mark:		12-20_7 (0.00 - 31.32 s)
Filter:	
Analysis:	Speech Interference Level vs. Time (SIL-4; Fast)
Statistic:	Max[12-20_7.{Left,Right}]
Kind:	SpeechInterferenceLevel
Abscissa 1:	Time,s
Channel 1:	Max {Pa},Speech Interference Level,dB(SPL),N/A=n/a ; Avg,arith=59.69; SIL5=65.09; SIL10=64.12; SIL50=58.47; SIL90=54.87; SIL95=54.47 dB(SPL); Min=52.39 dB(SPL) @28.1 s; Max=68.56 dB(SPL) @3.98 s
Comment:
<User Comment>
CT107
<>
SQobold SD recording
S/N 33020299 Name U London FW 1.5/3
Ch1: 104 dB(SPL) ICP
Ch2: 104 dB(SPL) ICP
User Information:
SSID Field Binaural Basic/Comments = People talking, cars passing, pen clicking, 
SSID Field Binaural Basic/Delete/scratch? = False
SSID Field Binaural Basic/End Buffer = 
SSID Field Binaural Basic/GroupID = CT107
SSID Field Binaural Basic/No edit needed = True
SSID Field Binaural Basic/SessionID = CamdenTown1
SSID Field Binaural Basic/Start Buffer = 


0,65.15
0.00533333,65.01
0.0106667,64.91
0.016,64.79
0.0213333,64.7
0.0266667,64.8
0.032,65.26
0.0373333,65.41
0.0426667,65.6
0.048,65.89
0.0533333,66.08
0.0586667,66.28
0.064,66.4
0.0693333,66.46
0.0746667,66.64
0.08,66.77
0.0853333,66.86
0.0906667,66.91
0.096,66.9
0.101333,66.9
0.106667,66.97
0.112,67.01
0.117333,67.02
0.122667,67.05
0.128,67.04
0.133333,66.97
0.138667,66.88
0.144,66.8
0.149333,66.8
0.154667,66.83
0.16,66.83
0.165333,66.8
0.170667,66.8
0.176,66.82
0.181333,66.9
0.186667,67.03
0.192,67.24
0.197333,67.42
0.202667,67.62
0.208,67.65
0.213333,67.65
0.218667,67.56
0.224,67.45
0.229333,67.31
0.234667,67.18
0.24,67.04
0.245333,66.88
0.250667,66.73
0.256,66.58
0.261333,66.45
0.266667,66.32
0.272,66.2
0.277333,66.1
0.282667,65.98
0.288,65.87
0.293333,65.74
0.298667,65.61
0.304,65.47
0.309333,65.33
0.314667,65.25
0.32,65.17
0.325333,65.04
0.330667,65.16
0.336,65.25
0.341333,65.29
0.346667,65.29
0.352,65.31
0.357333,65.32
0.362667,65.32
0.368,65.34
0.373333,65.39
0.378667,65.34
0.384,65.31
0.389333,65.3
0.394667,65.3
0.4,65.35
0.405333,65.41
0.410667,65.44
0.416,65.39
0.421333,65.31
0.426667,65.26
0.432,65.14
0.437333,64.99
0.442667,64.88
0.448,64.74
0.453333,64.59
0.458667,64.45
0.464,64.32
0.469333,64.17
0.474667,64.05
0.48,63.92
0.485333,63.79
0.490667,63.63
0.496,63.53
0.501333,63.44
0.506667,63.38
0.512,63.36
0.517333,63.41
0.522667,63.37
0.528,63.3
0.533333,63.22
0.538667,63.13
0.544,63.05
0.549333,63
0.554667,62.94
0.56,63.09
0.565333,63.07
0.570667,63.03
0.576,63.01
0.581333,63.02
0.586667,63.06
0.592,63.11
0.597333,63.07
0.602667,63.06
0.608,63.01
0.613333,62.97
0.618667,62.91
0.624,62.86
0.629333,62.89
0.634667,62.8
0.64,62.74
0.645333,62.64
0.650667,62.59
0.656,62.48
0.661333,62.39
0.666667,62.27
0.672,62.17
0.677333,62.1
0.682667,61.98
0.688,61.87
0.693333,61.75
0.698667,61.64
0.704,61.55
0.709333,61.45
0.714667,61.35
0.72,61.24
0.725333,61.16
0.730667,61.09
0.736,60.99
0.741333,60.9
0.746667,60.81
0.752,60.77
0.757333,60.74
0.762667,60.78
0.768,60.73
0.773333,60.67
0.778667,60.58
0.784,60.53
0.789333,60.51
0.794667,60.47
0.8,60.51
0.805333,60.47
0.810667,60.46
0.816,60.46
0.821333,60.41
0.826667,60.38
0.832,60.29
0.837333,60.32
0.842667,60.27
0.848,60.29
0.853333,60.27
0.858667,60.25
0.864,60.18
0.869333,60.16
0.874667,60.1
0.88,60.04
0.885333,59.99
0.890667,59.91
0.896,59.89
0.901333,59.85
0.906667,59.8
0.912,59.76
0.917333,59.73
0.922667,59.74
0.928,59.78
0.933333,59.81
0.938667,59.83
0.944,59.85
0.949333,59.77
0.954667,59.77
0.96,60.03
0.965333,60.06
0.970667,60.1
0.976,60.1
0.981333,60.11
0.986667,60.1
0.992,60.09
0.997333,60.05
1.002667,59.96
1.008,59.89
1.013333,59.82
1.018667,59.72
1.024,59.64
1.029333,59.55
1.034667,59.52
1.04,59.46
1.045333,59.38
1.050667,59.33
1.056,59.28
1.061333,59.23
1.066667,59.13
1.072,59.05
1.077333,59.02
1.082667,58.93
1.088,58.87
1.093333,58.84
1.098667,58.78
1.104,58.82
1.109333,58.76
1.114667,58.72
1.12,58.64
1.125333,58.66
1.130667,58.62
1.136,58.58
1.141333,58.53
1.146667,58.56
1.152,58.59
1.157333,58.51
1.162667,58.45
1.168,58.47
1.173333,58.46
1.178667,58.51
1.184,58.56
1.189333,58.73
1.194667,58.95
1.2,58.97
1.205333,58.91
1.210667,58.94
1.216,58.92
1.221333,58.95
1.226667,58.89
1.232,58.9
1.237333,58.89
1.242667,58.88
1.248,58.84
1.253333,58.88
1.258667,58.91
1.264,58.91
1.269333,58.9
1.274667,58.9
1.28,58.88
1.285333,59
1.290667,58.95
1.296,58.93
1.301333,58.96
1.306667,58.93
1.312,58.88
1.317333,58.83
1.322667,58.8
1.328,58.79
1.333333,58.77
1.338667,58.73
1.344,58.64
1.349333,58.63
1.354667,58.57
1.36,58.58
1.365333,58.54
1.370667,58.47
1.376,58.5
1.381333,58.47
1.386667,58.46
1.392,58.46
1.397333,58.51
1.402667,58.64
1.408,58.59
1.413333,58.52
1.418667,58.43
1.424,58.4
1.429333,58.35
1.434667,58.29
1.44,58.41
1.445333,58.55
1.450667,58.61
1.456,58.72
1.461333,58.85
1.466667,58.87
1.472,58.95
1.477333,58.92
1.482667,58.95
1.488,58.97
1.493333,58.95
1.498667,58.93
1.504,58.93
1.509333,58.99
1.514667,59.15
1.52,59.18
1.525333,59.19
1.530667,59.22
1.536,59.23
1.541333,59.24
1.546667,59.22
1.552,59.22
1.557333,59.22
1.562667,59.19
1.568,59.18
1.573333,59.17
1.578667,59.13
1.584,59.15
1.589333,59.13
1.594667,59.14
1.6,59.12
1.605333,59.16
1.610667,59.15
1.616,59.13
1.621333,59.18
1.626667,59.17
1.632,59.19
1.637333,59.13
1.642667,59.07
1.648,59
1.653333,59.01
1.658667,58.93
1.664,58.93
1.669333,58.94
1.674667,58.95
1.68,58.98
1.685333,59.04
1.690667,59.13
1.696,59.2
1.701333,59.25
1.706667,59.41
1.712,59.53
1.717333,59.67
1.722667,59.72
1.728,59.76
1.733333,59.81
1.738667,59.8
1.744,59.76
1.749333,59.74
1.754667,59.71
1.76,59.63
1.765333,59.61
1.770667,59.55
1.776,59.53
1.781333,59.56
1.786667,59.48
1.792,59.42
1.797333,59.35
1.802667,59.36
1.808,59.48
1.813333,59.68
1.818667,59.83
1.824,60.15
1.829333,60.56
1.834667,60.89
1.84,61.09
1.845333,61.25
1.850667,61.47
1.856,61.58
1.861333,61.8
1.866667,62.08
1.872,62.25
1.877333,62.41
1.882667,62.5
1.888,62.7
1.893333,62.83
1.898667,63.11
1.904,63.25
1.909333,63.37
1.914667,63.5
1.92,63.52
1.925333,63.54
1.930667,63.63
1.936,63.65
1.941333,63.65
1.946667,63.64
1.952,63.57
1.957333,63.55
1.962667,63.5
1.968,63.4
1.973333,63.29
1.978667,63.2
1.984,63.16
1.989333,63.07
1.994667,62.96
2,62.85
2.005333,62.79
2.010667,62.69
2.016,62.66
2.021333,62.62
2.026667,62.57
2.032,62.51
2.037333,62.42
2.042667,62.38
2.048,62.28
2.053333,62.21
2.058667,62.16
2.064,62.05
2.069333,61.96
2.074667,61.85
2.08,61.8
2.085333,61.74
2.090667,61.68
2.096,61.62
2.101333,61.54
2.106667,61.59
2.112,61.57
2.117333,61.62
2.122667,61.82
2.128,62
2.133333,62.41
2.138667,62.97
2.144,63.38
2.149333,63.66
2.154667,63.87
2.16,64.04
2.165333,64.08
2.170667,64.14
2.176,64.17
2.181333,64.11
2.186667,64.09
2.192,64.06
2.197333,63.98
2.202667,64.01
2.208,63.99
2.213333,63.89
2.218667,63.8
2.224,63.71
2.229333,63.6
2.234667,63.48
2.24,63.39
2.245333,63.26
2.250667,63.17
2.256,63.06
2.261333,62.94
2.266667,62.86
2.272,62.8
2.277333,62.66
2.282667,62.58
2.288,62.44
2.293333,62.36
2.298667,62.24
2.304,62.17
2.309333,62.11
2.314667,61.99
2.32,61.93
2.325333,61.91
2.330667,61.84
2.336,61.74
2.341333,61.75
2.346667,61.71
2.352,61.97
2.357333,62.14
2.362667,62.36
2.368,62.56
2.373333,62.79
2.378667,62.87
2.384,62.98
2.389333,63.07
2.394667,63.2
2.4,63.08
2.405333,62.99
2.410667,62.86
2.416,62.75
2.421333,62.62
2.426667,62.54
2.432,62.44
2.437333,62.32
2.442667,62.2
2.448,62.07
2.453333,61.96
2.458667,61.85
2.464,61.76
2.469333,61.67
2.474667,61.59
2.48,61.55
2.485333,61.46
2.490667,61.39
2.496,61.32
2.501333,61.27
2.506667,61.28
2.512,61.23
2.517333,61.15
2.522667,61.08
2.528,61.08
2.533333,61.04
2.538667,61.01
2.544,60.97
2.549333,60.89
2.554667,61.01
2.56,60.99
2.565333,60.9
2.570667,60.85
2.576,60.83
2.581333,60.77
2.586667,60.71
2.592,60.64
2.597333,60.57
2.602667,60.57
2.608,60.6
2.613333,60.61
2.618667,60.56
2.624,60.56
2.629333,60.58
2.634667,60.6
2.64,60.65
2.645333,60.7
2.650667,60.73
2.656,60.75
2.661333,60.72
2.666667,60.73
2.672,60.78
2.677333,60.72
2.682667,60.63
2.688,60.66
2.693333,60.64
2.698667,60.62
2.704,60.52
2.709333,60.44
2.714667,60.37
2.72,60.29
2.725333,60.2
2.730667,60.09
2.736,60.03
2.741333,59.97
2.746667,59.86
2.752,59.72
2.757333,59.61
2.762667,59.51
2.768,59.47
2.773333,59.4
2.778667,59.32
2.784,59.28
2.789333,59.2
2.794667,59.16
2.8,59.14
2.805333,59.07
2.810667,59.01
2.816,59.05
2.821333,59
2.826667,58.99
2.832,58.89
2.837333,58.78
2.842667,58.7
2.848,58.6
2.853333,58.49
2.858667,58.42
2.864,58.36
2.869333,58.34
2.874667,58.24
2.88,58.18
2.885333,58.06
2.890667,57.99
2.896,57.94
2.901333,57.91
2.906667,57.8
2.912,57.79
2.917333,57.72
2.922667,57.68
2.928,57.6
2.933333,57.56
2.938667,57.51
2.944,57.48
2.949333,57.43
2.954667,57.37
2.96,57.33
2.965333,57.35
2.970667,57.32
2.976,57.28
2.981333,57.23
2.986667,57.24
2.992,57.22
2.997333,57.25
3.002667,57.24
3.008,57.38
3.013333,57.58
3.018667,57.82
3.024,58.85
3.029333,59.78
3.034667,60.26
3.04,60.58
3.045333,60.79
3.050667,61.06
3.056,61.29
3.061333,61.54
3.066667,61.76
3.072,61.98
3.077333,62.1
3.082667,62
3.088,61.88
3.093333,61.76
3.098667,61.7
3.104,61.6
3.109333,61.51
3.114667,61.4
3.12,61.32
3.125333,61.21
3.130667,61.25
3.136,61.47
3.141333,62.18
3.146667,62.77
3.152,63.1
3.157333,63.29
3.162667,63.5
3.168,63.71
3.173333,63.9
3.178667,64.19
3.184,64.35
3.189333,64.52
3.194667,64.64
3.2,64.66
3.205333,64.67
3.210667,64.68
3.216,64.6
3.221333,64.48
3.226667,64.34
3.232,64.23
3.237333,64.15
3.242667,64.05
3.248,63.96
3.253333,63.85
3.258667,63.79
3.264,63.72
3.269333,63.62
3.274667,63.52
3.28,63.41
3.285333,63.34
3.290667,63.3
3.296,63.24
3.301333,63.19
3.306667,63.12
3.312,63.06
3.317333,63.08
3.322667,63.23
3.328,63.47
3.333333,63.65
3.338667,63.82
3.344,63.97
3.349333,64.01
3.354667,64.01
3.36,63.96
3.365333,63.87
3.370667,63.76
3.376,63.64
3.381333,63.57
3.386667,63.46
3.392,63.37
3.397333,63.27
3.402667,63.16
3.408,63.1
3.413333,63.03
3.418667,62.97
3.424,62.89
3.429333,62.81
3.434667,62.69
3.44,62.6
3.445333,62.51
3.450667,62.36
3.456,62.27
3.461333,62.17
3.466667,62.05
3.472,61.94
3.477333,61.81
3.482667,61.71
3.488,61.6
3.493333,61.5
3.498667,61.39
3.504,61.31
3.509333,61.18
3.514667,61.09
3.52,60.98
3.525333,60.93
3.530667,60.88
3.536,60.76
3.541333,60.67
3.546667,60.59
3.552,60.54
3.557333,60.49
3.562667,60.48
3.568,60.39
3.573333,60.35
3.578667,60.32
3.584,60.24
3.589333,60.15
3.594667,60.06
3.6,60.01
3.605333,59.96
3.610667,59.86
3.616,59.79
3.621333,59.7
3.626667,59.7
3.632,59.64
3.637333,59.59
3.642667,59.51
3.648,59.57
3.653333,59.53
3.658667,59.47
3.664,59.41
3.669333,59.38
3.674667,59.37
3.68,59.4
3.685333,59.43
3.690667,59.48
3.696,59.61
3.701333,59.65
3.706667,59.71
3.712,59.71
3.717333,59.72
3.722667,59.69
3.728,59.71
3.733333,59.79
3.738667,59.87
3.744,59.86
3.749333,59.82
3.754667,59.81
3.76,59.86
3.765333,59.82
3.770667,59.76
3.776,59.72
3.781333,59.64
3.786667,59.59
3.792,59.58
3.797333,59.62
3.802667,60.07
3.808,60.86
3.813333,61.64
3.818667,62.26
3.824,63.03
3.829333,63.81
3.834667,64.68
3.84,65.22
3.845333,65.44
3.850667,65.62
3.856,65.77
3.861333,65.84
3.866667,65.79
3.872,65.66
3.877333,65.53
3.882667,65.43
3.888,65.36
3.893333,65.26
3.898667,65.21
3.904,65.21
3.909333,65.24
3.914667,65.34
3.92,65.47
3.925333,65.85
3.930667,66.2
3.936,66.5
3.941333,66.76
3.946667,66.98
3.952,67.21
3.957333,67.42
3.962667,67.78
3.968,68.15
3.973333,68.37
3.978667,68.54
3.984,68.56
3.989333,68.53
3.994667,68.48
4,68.37
4.005333,68.23
4.010667,68.06
4.016,67.91
4.021333,67.76
4.026667,67.6
4.032,67.43
4.037333,67.29
4.042667,67.16
4.048,67
4.053333,66.86
4.058667,66.71
4.064,66.56
4.069333,66.41
4.074667,66.26
4.08,66.14
4.085333,66.05
4.090667,65.95
4.096,65.81
4.101333,65.74
4.106667,65.69
4.112,65.62
4.117333,65.63
4.122667,65.61
4.128,65.56
4.133333,65.52
4.138667,65.44
4.144,65.38
4.149333,65.26
4.154667,65.13
4.16,65.01
4.165333,64.89
4.170667,64.79
4.176,64.66
4.181333,64.54
4.186667,64.43
4.192,64.3
4.197333,64.18
4.202667,64.11
4.208,64.05
4.213333,63.93
4.218667,63.84
4.224,63.74
4.229333,63.62
4.234667,63.52
4.24,63.41
4.245333,63.31
4.250667,63.18
4.256,63.06
4.261333,62.96
4.266667,62.83
4.272,62.73
4.277333,62.69
4.282667,62.63
4.288,62.66
4.293333,62.69
4.298667,62.69
4.304,62.61
4.309333,62.54
4.314667,62.48
4.32,62.45
4.325333,62.35
4.330667,62.25
4.336,62.16
4.341333,62.09
4.346667,62.02
4.352,61.93
4.357333,61.87
4.362667,61.8
4.368,61.76
4.373333,61.65
4.378667,61.55
4.384,61.46
4.389333,61.42
4.394667,61.34
4.4,61.27
4.405333,61.21
4.410667,61.15
4.416,61.07
4.421333,61.01
4.426667,60.96
4.432,60.92
4.437333,60.92
4.442667,60.89
4.448,60.88
4.453333,60.97
4.458667,60.94
4.464,60.9
4.469333,60.92
4.474667,60.87
4.48,60.91
4.485333,60.86
4.490667,60.87
4.496,60.86
4.501333,60.92
4.506667,61.07
4.512,61.07
4.517333,61.18
4.522667,61.18
4.528,61.17
4.533333,61.15
4.538667,61.1
4.544,61.06
4.549333,61.01
4.554667,60.97
4.56,60.88
4.565333,60.79
4.570667,60.75
4.576,60.73
4.581333,60.7
4.586667,60.81
4.592,60.89
4.597333,61.06
4.602667,61.27
4.608,61.44
4.613333,61.66
4.618667,61.83
4.624,61.9
4.629333,62.08
4.634667,62.14
4.64,62.19
4.645333,62.37
4.650667,62.52
4.656,62.55
4.661333,62.59
4.666667,62.72
4.672,62.73
4.677333,62.71
4.682667,62.7
4.688,62.69
4.693333,62.76
4.698667,62.78
4.704,62.77
4.709333,62.79
4.714667,62.79
4.72,62.9
4.725333,62.92
4.730667,62.84
4.736,62.82
4.741333,62.76
4.746667,62.77
4.752,62.72
4.757333,62.65
4.762667,62.62
4.768,62.58
4.773333,62.56
4.778667,62.65
4.784,62.78
4.789333,62.87
4.794667,62.98
4.8,63.09
4.805333,63.01
4.810667,62.97
4.816,62.99
4.821333,63.04
4.826667,63.06
4.832,63
4.837333,63.01
4.842667,63.03
4.848,63.15
4.853333,63.14
4.858667,63.2
4.864,63.43
4.869333,63.73
4.874667,63.97
4.88,64.3
4.885333,64.54
4.890667,64.77
4.896,64.95
4.901333,65.1
4.906667,65.14
4.912,65.3
4.917333,65.33
4.922667,65.36
4.928,65.33
4.933333,65.27
4.938667,65.21
4.944,65.16
4.949333,65.09
4.954667,65.06
4.96,65
4.965333,64.9
4.970667,64.82
4.976,64.78
4.981333,64.7
4.986667,64.59
4.992,64.53
4.997333,64.45
5.002667,64.36
5.008,64.31
5.013333,64.26
5.018667,64.23
5.024,64.27
5.029333,64.29
5.034667,64.28
5.04,64.25
5.045333,64.18
5.050667,64.13
5.056,64.1
5.061333,64.08
5.066667,64.05
5.072,64.02
5.077333,64.09
5.082667,64.15
5.088,64.28
5.093333,64.22
5.098667,64.17
5.104,64.16
5.109333,64.13
5.114667,64.09
5.12,64.04
5.125333,64.04
5.130667,63.96
5.136,63.84
5.141333,63.73
5.146667,63.66
5.152,63.58
5.157333,63.5
5.162667,63.43
5.168,63.36
5.173333,63.33
5.178667,63.29
5.184,63.29
5.189333,63.21
5.194667,63.19
5.2,63.12
5.205333,63.11
5.210667,63.05
5.216,62.99
5.221333,63.05
5.226667,63.04
5.232,62.98
5.237333,62.9
5.242667,62.87
5.248,62.76
5.253333,62.71
5.258667,62.62
5.264,62.52
5.269333,62.51
5.274667,62.48
5.28,62.43
5.285333,62.36
5.290667,62.28
5.296,62.17
5.301333,62.11
5.306667,62.13
5.312,62.1
5.317333,62.09
5.322667,62.19
5.328,62.21
5.333333,62.18
5.338667,62.16
5.344,62.15
5.349333,62.16
5.354667,62.21
5.36,62.24
5.365333,62.28
5.370667,62.32
5.376,62.4
5.381333,62.49
5.386667,62.51
5.392,62.47
5.397333,62.43
5.402667,62.48
5.408,62.54
5.413333,62.72
5.418667,63
5.424,63.37
5.429333,63.58
5.434667,63.8
5.44,63.96
5.445333,64.05
5.450667,64.11
5.456,64.2
5.461333,64.18
5.466667,64.2
5.472,64.22
5.477333,64.23
5.482667,64.23
5.488,64.22
5.493333,64.16
5.498667,64.1
5.504,64.04
5.509333,64.06
5.514667,64.1
5.52,64.08
5.525333,64.14
5.530667,64.1
5.536,64.09
5.541333,64.13
5.546667,64.17
5.552,64.16
5.557333,64.18
5.562667,64.21
5.568,64.22
5.573333,64.14
5.578667,64.14
5.584,64.12
5.589333,64.12
5.594667,64.16
5.6,64.19
5.605333,64.23
5.610667,64.28
5.616,64.21
5.621333,64.18
5.626667,64.14
5.632,64.15
5.637333,64.06
5.642667,64.07
5.648,64.15
5.653333,64.15
5.658667,64.12
5.664,64.07
5.669333,64.05
5.674667,64.01
5.68,64.1
5.685333,64.12
5.690667,64.16
5.696,64.23
5.701333,64.27
5.706667,64.35
5.712,64.38
5.717333,64.34
5.722667,64.34
5.728,64.31
5.733333,64.43
5.738667,64.53
5.744,64.52
5.749333,64.5
5.754667,64.49
5.76,64.46
5.765333,64.42
5.770667,64.47
5.776,64.44
5.781333,64.44
5.786667,64.49
5.792,64.55
5.797333,64.63
5.802667,64.68
5.808,64.78
5.813333,64.82
5.818667,64.89
5.824,64.93
5.829333,64.94
5.834667,64.97
5.84,65.01
5.845333,65.11
5.850667,65.07
5.856,65.17
5.861333,65.17
5.866667,65.2
5.872,65.16
5.877333,65.23
5.882667,65.25
5.888,65.21
5.893333,65.14
5.898667,65.16
5.904,65.14
5.909333,65.24
5.914667,65.26
5.92,65.23
5.925333,65.26
5.930667,65.25
5.936,65.25
5.941333,65.22
5.946667,65.2
5.952,65.19
5.957333,65.21
5.962667,65.24
5.968,65.25
5.973333,65.26
5.978667,65.29
5.984,65.27
5.989333,65.36
5.994667,65.46
6,65.44
6.005333,65.38
6.010667,65.35
6.016,65.39
6.021333,65.4
6.026667,65.33
6.032,65.23
6.037333,65.2
6.042667,65.19
6.048,65.16
6.053333,65.09
6.058667,65.04
6.064,64.99
6.069333,64.89
6.074667,64.85
6.08,64.74
6.085333,64.62
6.090667,64.58
6.096,64.51
6.101333,64.55
6.106667,64.53
6.112,64.47
6.117333,64.42
6.122667,64.37
6.128,64.3
6.133333,64.25
6.138667,64.21
6.144,64.16
6.149333,64.11
6.154667,64.02
6.16,63.93
6.165333,63.85
6.170667,63.77
6.176,63.7
6.181333,63.61
6.186667,63.55
6.192,63.5
6.197333,63.43
6.202667,63.38
6.208,63.36
6.213333,63.32
6.218667,63.25
6.224,63.22
6.229333,63.18
6.234667,63.21
6.24,63.21
6.245333,63.14
6.250667,63.1
6.256,63.13
6.261333,63.04
6.266667,63.02
6.272,63.02
6.277333,63
6.282667,63.01
6.288,63.13
6.293333,63.13
6.298667,63.13
6.304,63.08
6.309333,63.05
6.314667,63.02
6.32,63.02
6.325333,63.08
6.330667,63.14
6.336,63.21
6.341333,63.14
6.346667,63.16
6.352,63.13
6.357333,63.06
6.362667,63.03
6.368,63.04
6.373333,62.99
6.378667,62.94
6.384,62.91
6.389333,62.85
6.394667,62.82
6.4,62.82
6.405333,62.82
6.410667,62.86
6.416,62.95
6.421333,62.9
6.426667,62.84
6.432,62.83
6.437333,62.79
6.442667,62.87
6.448,62.83
6.453333,62.81
6.458667,62.82
6.464,62.9
6.469333,63.21
6.474667,63.22
6.48,63.27
6.485333,63.26
6.490667,63.24
6.496,63.24
6.501333,63.25
6.506667,63.32
6.512,63.39
6.517333,63.57
6.522667,63.61
6.528,63.77
6.533333,63.95
6.538667,64.08
6.544,64.09
6.549333,64.18
6.554667,64.17
6.56,64.28
6.565333,64.22
6.570667,64.29
6.576,64.34
6.581333,64.32
6.586667,64.24
6.592,64.19
6.597333,64.13
6.602667,64.09
6.608,64
6.613333,63.96
6.618667,63.86
6.624,63.82
6.629333,63.75
6.634667,63.71
6.64,63.69
6.645333,63.58
6.650667,63.47
6.656,63.39
6.661333,63.39
6.666667,63.51
6.672,63.55
6.677333,63.84
6.682667,64.2
6.688,64.54
6.693333,64.67
6.698667,64.86
6.704,65.02
6.709333,65.18
6.714667,65.24
6.72,65.41
6.725333,65.53
6.730667,65.62
6.736,65.72
6.741333,65.74
6.746667,65.81
6.752,65.81
6.757333,65.86
6.762667,65.9
6.768,65.9
6.773333,65.88
6.778667,65.81
6.784,65.78
6.789333,65.73
6.794667,65.67
6.8,65.56
6.805333,65.44
6.810667,65.38
6.816,65.26
6.821333,65.17
6.826667,65.09
6.832,64.97
6.837333,64.91
6.842667,64.79
6.848,64.67
6.853333,64.66
6.858667,64.67
6.864,64.67
6.869333,64.74
6.874667,64.72
6.88,64.79
6.885333,64.83
6.890667,64.76
6.896,64.81
6.901333,64.82
6.906667,65.05
6.912,65.04
6.917333,65.07
6.922667,65.2
6.928,65.36
6.933333,65.47
6.938667,65.53
6.944,65.71
6.949333,65.85
6.954667,65.98
6.96,66.02
6.965333,66.04
6.970667,65.99
6.976,66.03
6.981333,66.11
6.986667,66.09
6.992,66.03
6.997333,65.98
7.002667,65.94
7.008,65.87
7.013333,65.8
7.018667,65.71
7.024,65.67
7.029333,65.65
7.034667,65.59
7.04,65.56
7.045333,65.51
7.050667,65.46
7.056,65.43
7.061333,65.36
7.066667,65.31
7.072,65.29
7.077333,65.29
7.082667,65.31
7.088,65.32
7.093333,65.28
7.098667,65.21
7.104,65.15
7.109333,65.09
7.114667,65.08
7.12,65.05
7.125333,64.98
7.130667,64.97
7.136,64.97
7.141333,64.89
7.146667,64.84
7.152,64.77
7.157333,64.75
7.162667,64.72
7.168,64.76
7.173333,64.76
7.178667,64.8
7.184,64.79
7.189333,64.79
7.194667,64.78
7.2,64.77
7.205333,64.73
7.210667,64.71
7.216,64.67
7.221333,64.64
7.226667,64.64
7.232,64.61
7.237333,64.61
7.242667,64.54
7.248,64.51
7.253333,64.41
7.258667,64.39
7.264,64.31
7.269333,64.23
7.274667,64.17
7.28,64.17
7.285333,64.07
7.290667,63.96
7.296,63.87
7.301333,63.77
7.306667,63.75
7.312,63.7
7.317333,63.62
7.322667,63.56
7.328,63.5
7.333333,63.49
7.338667,63.54
7.344,63.5
7.349333,63.5
7.354667,63.46
7.36,63.38
7.365333,63.33
7.370667,63.27
7.376,63.22
7.381333,63.2
7.386667,63.15
7.392,63.11
7.397333,63.04
7.402667,63.17
7.408,63.19
7.413333,63.25
7.418667,63.16
7.424,63.14
7.429333,63.1
7.434667,63.11
7.44,63.06
7.445333,63.02
7.450667,63.02
7.456,63.06
7.461333,63.14
7.466667,63.15
7.472,63.18
7.477333,63.28
7.482667,63.23
7.488,63.2
7.493333,63.23
7.498667,63.23
7.504,63.26
7.509333,63.3
7.514667,63.33
7.52,63.47
7.525333,63.59
7.530667,63.63
7.536,63.77
7.541333,63.87
7.546667,63.88
7.552,64
7.557333,64.11
7.562667,64.09
7.568,64.11
7.573333,64.09
7.578667,64.18
7.584,64.11
7.589333,64.12
7.594667,64.08
7.6,64.11
7.605333,64.18
7.610667,64.23
7.616,64.17
7.621333,64.21
7.626667,64.24
7.632,64.17
7.637333,64.12
7.642667,64.09
7.648,64.11
7.653333,64.08
7.658667,64.06
7.664,64.01
7.669333,64.01
7.674667,64.01
7.68,64
7.685333,63.98
7.690667,63.99
7.696,63.95
7.701333,63.94
7.706667,63.9
7.712,63.9
7.717333,63.82
7.722667,63.79
7.728,63.76
7.733333,63.78
7.738667,63.68
7.744,63.63
7.749333,63.57
7.754667,63.5
7.76,63.49
7.765333,63.44
7.770667,63.36
7.776,63.47
7.781333,63.47
7.786667,63.37
7.792,63.31
7.797333,63.25
7.802667,63.21
7.808,63.16
7.813333,63.13
7.818667,63.1
7.824,63.15
7.829333,63.15
7.834667,63.13
7.84,63.07
7.845333,63.02
7.850667,63
7.856,62.92
7.861333,62.94
7.866667,62.91
7.872,62.88
7.877333,62.87
7.882667,62.88
7.888,62.84
7.893333,62.84
7.898667,62.86
7.904,62.96
7.909333,63.06
7.914667,63.08
7.92,63.18
7.925333,63.47
7.930667,63.53
7.936,63.66
7.941333,63.74
7.946667,63.81
7.952,63.87
7.957333,63.92
7.962667,64.01
7.968,64.06
7.973333,64.31
7.978667,64.38
7.984,64.51
7.989333,64.56
7.994667,64.58
8,64.65
8.005333,64.71
8.010667,64.66
8.016,64.71
8.021333,64.66
8.026667,64.59
8.032,64.57
8.037333,64.53
8.042667,64.51
8.048,64.53
8.053333,64.48
8.058667,64.41
8.064,64.35
8.069333,64.28
8.074667,64.19
8.08,64.16
8.085333,64.07
8.090667,63.98
8.096,63.92
8.101333,63.83
8.106667,63.77
8.112,63.69
8.117333,63.63
8.122667,63.54
8.128,63.5
8.133333,63.47
8.138667,63.4
8.144,63.36
8.149333,63.43
8.154667,63.47
8.16,63.44
8.165333,63.45
8.170667,63.48
8.176,63.45
8.181333,63.41
8.186667,63.34
8.192,63.3
8.197333,63.41
8.202667,63.37
8.208,63.38
8.213333,63.34
8.218667,63.36
8.224,63.29
8.229333,63.26
8.234667,63.18
8.24,63.1
8.245333,63.03
8.250667,62.92
8.256,62.87
8.261333,62.81
8.266667,62.76
8.272,62.68
8.277333,62.6
8.282667,62.64
8.288,62.52
8.293333,62.47
8.298667,62.46
8.304,62.45
8.309333,62.37
8.314667,62.34
8.32,62.36
8.325333,62.39
8.330667,62.48
8.336,62.57
8.341333,62.61
8.346667,62.77
8.352,62.93
8.357333,63.26
8.362667,63.39
8.368,63.73
8.373333,63.93
8.378667,64
8.384,64.15
8.389333,64.29
8.394667,64.43
8.4,64.5
8.405333,64.57
8.410667,64.61
8.416,64.75
8.421333,64.75
8.426667,64.82
8.432,64.83
8.437333,64.77
8.442667,64.8
8.448,64.86
8.453333,64.94
8.458667,64.96
8.464,64.96
8.469333,64.94
8.474667,64.85
8.48,64.77
8.485333,64.71
8.490667,64.68
8.496,64.65
8.501333,64.62
8.506667,64.69
8.512,64.62
8.517333,64.53
8.522667,64.46
8.528,64.43
8.533333,64.42
8.538667,64.35
8.544,64.27
8.549333,64.17
8.554667,64.05
8.56,64.01
8.565333,63.86
8.570667,63.78
8.576,63.66
8.581333,63.6
8.586667,63.49
8.592,63.4
8.597333,63.32
8.602667,63.23
8.608,63.18
8.613333,63.09
8.618667,63.01
8.624,63.01
8.629333,62.97
8.634667,62.87
8.64,62.84
8.645333,62.75
8.650667,62.71
8.656,62.65
8.661333,62.58
8.666667,62.64
8.672,62.61
8.677333,62.55
8.682667,62.5
8.688,62.44
8.693333,62.42
8.698667,62.47
8.704,62.46
8.709333,62.52
8.714667,62.49
8.72,62.51
8.725333,62.49
8.730667,62.4
8.736,62.32
8.741333,62.31
8.746667,62.25
8.752,62.33
8.757333,62.32
8.762667,62.27
8.768,62.31
8.773333,62.33
8.778667,62.3
8.784,62.34
8.789333,62.28
8.794667,62.34
8.8,62.36
8.805333,62.37
8.810667,62.34
8.816,62.33
8.821333,62.37
8.826667,62.36
8.832,62.41
8.837333,62.44
8.842667,62.45
8.848,62.39
8.853333,62.33
8.858667,62.29
8.864,62.25
8.869333,62.23
8.874667,62.26
8.88,62.38
8.885333,62.42
8.890667,62.37
8.896,62.33
8.901333,62.28
8.906667,62.23
8.912,62.17
8.917333,62.08
8.922667,62
8.928,61.92
8.933333,61.86
8.938667,61.99
8.944,62.02
8.949333,62.07
8.954667,62.1
8.96,62.05
8.965333,62
8.970667,61.98
8.976,61.91
8.981333,61.89
8.986667,61.84
8.992,61.81
8.997333,61.76
9.002667,61.74
9.008,61.66
9.013333,61.65
9.018667,61.66
9.024,61.66
9.029333,61.7
9.034667,61.67
9.04,61.79
9.045333,61.77
9.050667,61.73
9.056,61.7
9.061333,61.61
9.066667,61.57
9.072,61.52
9.077333,61.53
9.082667,61.47
9.088,61.39
9.093333,61.34
9.098667,61.24
9.104,61.18
9.109333,61.12
9.114667,61.07
9.12,61.05
9.125333,61.07
9.130667,61.13
9.136,61.07
9.141333,61.03
9.146667,60.99
9.152,60.95
9.157333,60.9
9.162667,60.9
9.168,60.94
9.173333,60.99
9.178667,61.02
9.184,61.02
9.189333,61.02
9.194667,61.1
9.2,61.21
9.205333,61.28
9.210667,61.38
9.216,61.52
9.221333,61.73
9.226667,61.77
9.232,61.81
9.237333,61.75
9.242667,61.7
9.248,61.68
9.253333,61.61
9.258667,61.56
9.264,61.52
9.269333,61.51
9.274667,61.51
9.28,61.44
9.285333,61.49
9.290667,61.45
9.296,61.41
9.301333,61.36
9.306667,61.25
9.312,61.16
9.317333,61.12
9.322667,61.05
9.328,61.01
9.333333,61.02
9.338667,61.01
9.344,60.97
9.349333,60.96
9.354667,60.93
9.36,60.88
9.365333,60.83
9.370667,60.75
9.376,60.69
9.381333,60.62
9.386667,60.57
9.392,60.51
9.397333,60.43
9.402667,60.51
9.408,60.58
9.413333,60.54
9.418667,60.46
9.424,60.42
9.429333,60.32
9.434667,60.26
9.44,60.2
9.445333,60.16
9.450667,60.12
9.456,60.13
9.461333,60.21
9.466667,60.24
9.472,60.18
9.477333,60.23
9.482667,60.22
9.488,60.19
9.493333,60.16
9.498667,60.14
9.504,60.1
9.509333,60.15
9.514667,60.13
9.52,60.04
9.525333,60.09
9.530667,60.05
9.536,60.04
9.541333,60.04
9.546667,60.08
9.552,60.09
9.557333,60.12
9.562667,60.11
9.568,60.07
9.573333,60.14
9.578667,60.18
9.584,60.16
9.589333,60.24
9.594667,60.27
9.6,60.21
9.605333,60.34
9.610667,60.28
9.616,60.24
9.621333,60.2
9.626667,60.22
9.632,60.17
9.637333,60.14
9.642667,60.13
9.648,60.03
9.653333,59.94
9.658667,59.87
9.664,59.87
9.669333,59.83
9.674667,59.79
9.68,59.77
9.685333,59.77
9.690667,59.78
9.696,59.77
9.701333,59.77
9.706667,59.78
9.712,59.77
9.717333,59.91
9.722667,59.96
9.728,60.02
9.733333,60.01
9.738667,60.09
9.744,60.02
9.749333,59.97
9.754667,60.04
9.76,59.96
9.765333,59.89
9.770667,59.84
9.776,59.81
9.781333,59.86
9.786667,59.79
9.792,59.73
9.797333,59.67
9.802667,59.62
9.808,59.58
9.813333,59.52
9.818667,59.44
9.824,59.35
9.829333,59.27
9.834667,59.22
9.84,59.18
9.845333,59.13
9.850667,59.14
9.856,59.19
9.861333,59.22
9.866667,59.23
9.872,59.49
9.877333,59.6
9.882667,59.64
9.888,59.7
9.893333,59.77
9.898667,59.82
9.904,59.83
9.909333,59.88
9.914667,59.87
9.92,59.94
9.925333,60.1
9.930667,60.24
9.936,60.37
9.941333,60.38
9.946667,60.37
9.952,60.32
9.957333,60.37
9.962667,60.32
9.968,60.25
9.973333,60.25
9.978667,60.26
9.984,60.31
9.989333,60.3
9.994667,60.28
10,60.24
10.005333,60.22
10.010667,60.17
10.016,60.15
10.021333,60.1
10.026667,60.05
10.032,59.91
10.037333,59.8
10.042667,59.73
10.048,59.66
10.053333,59.57
10.058667,59.55
10.064,59.54
10.069333,59.56
10.074667,59.48
10.08,59.39
10.085333,59.32
10.090667,59.28
10.096,59.27
10.101333,59.2
10.106667,59.19
10.112,59.08
10.117333,59.01
10.122667,58.94
10.128,58.88
10.133333,58.83
10.138667,58.74
10.144,58.66
10.149333,58.6
10.154667,58.55
10.16,58.55
10.165333,58.51
10.170667,58.45
10.176,58.39
10.181333,58.4
10.186667,58.47
10.192,58.46
10.197333,58.46
10.202667,58.46
10.208,58.52
10.213333,58.55
10.218667,58.58
10.224,58.58
10.229333,58.59
10.234667,58.58
10.24,58.57
10.245333,58.53
10.250667,58.51
10.256,58.49
10.261333,58.59
10.266667,58.64
10.272,58.59
10.277333,58.61
10.282667,58.65
10.288,58.58
10.293333,58.58
10.298667,58.56
10.304,58.6
10.309333,58.59
10.314667,58.5
10.32,58.43
10.325333,58.39
10.330667,58.35
10.336,58.25
10.341333,58.19
10.346667,58.18
10.352,58.18
10.357333,58.1
10.362667,58.11
10.368,58.07
10.373333,57.98
10.378667,57.97
10.384,57.88
10.389333,57.86
10.394667,57.85
10.4,57.8
10.405333,57.8
10.410667,57.83
10.416,57.91
10.421333,57.86
10.426667,57.88
10.432,57.9
10.437333,57.86
10.442667,57.89
10.448,57.95
10.453333,58.11
10.458667,58.22
10.464,58.18
10.469333,58.25
10.474667,58.3
10.48,58.24
10.485333,58.19
10.490667,58.13
10.496,58.11
10.501333,58.09
10.506667,58.02
10.512,58
10.517333,57.97
10.522667,57.93
10.528,57.86
10.533333,57.8
10.538667,57.74
10.544,57.68
10.549333,57.64
10.554667,57.68
10.56,57.63
10.565333,57.56
10.570667,57.58
10.576,57.63
10.581333,57.61
10.586667,57.56
10.592,57.66
10.597333,57.77
10.602667,57.74
10.608,57.76
10.613333,57.78
10.618667,57.75
10.624,57.73
10.629333,57.79
10.634667,57.89
10.64,57.95
10.645333,57.98
10.650667,57.92
10.656,58
10.661333,57.93
10.666667,57.86
10.672,57.85
10.677333,57.81
10.682667,57.85
10.688,57.79
10.693333,57.75
10.698667,57.72
10.704,57.69
10.709333,57.63
10.714667,57.65
10.72,57.59
10.725333,57.56
10.730667,57.54
10.736,57.52
10.741333,57.49
10.746667,57.55
10.752,57.65
10.757333,57.71
10.762667,57.69
10.768,57.81
10.773333,57.82
10.778667,57.8
10.784,57.8
10.789333,57.92
10.794667,58.18
10.8,58.26
10.805333,58.37
10.810667,58.48
10.816,58.79
10.821333,58.91
10.826667,59.1
10.832,59.31
10.837333,59.61
10.842667,59.74
10.848,59.94
10.853333,60.2
10.858667,60.31
10.864,60.39
10.869333,60.38
10.874667,60.33
10.88,60.26
10.885333,60.21
10.890667,60.17
10.896,60.14
10.901333,60.08
10.906667,59.99
10.912,60.01
10.917333,59.98
10.922667,59.92
10.928,59.82
10.933333,59.74
10.938667,59.74
10.944,59.71
10.949333,60.04
10.954667,60.49
10.96,60.83
10.965333,61.24
10.970667,61.54
10.976,61.76
10.981333,61.8
10.986667,61.74
10.992,61.69
10.997333,61.79
11.002667,62.18
11.008,62.61
11.013333,62.85
11.018667,63.01
11.024,63.07
11.029333,63.09
11.034667,63.02
11.04,62.99
11.045333,62.89
11.050667,62.78
11.056,62.7
11.061333,62.62
11.066667,62.49
11.072,62.38
11.077333,62.27
11.082667,62.15
11.088,62.02
11.093333,61.94
11.098667,61.84
11.104,61.73
11.109333,61.61
11.114667,61.46
11.12,61.33
11.125333,61.2
11.130667,61.09
11.136,60.95
11.141333,60.8
11.146667,60.68
11.152,60.57
11.157333,60.44
11.162667,60.33
11.168,60.24
11.173333,60.13
11.178667,60.01
11.184,59.97
11.189333,59.9
11.194667,59.88
11.2,59.9
11.205333,59.94
11.210667,60.04
11.216,60.06
11.221333,60.09
11.226667,60.09
11.232,60.09
11.237333,60.06
11.242667,59.97
11.248,59.93
11.253333,59.95
11.258667,59.85
11.264,59.76
11.269333,59.68
11.274667,59.55
11.28,59.45
11.285333,59.41
11.290667,59.31
11.296,59.23
11.301333,59.13
11.306667,59.05
11.312,58.95
11.317333,58.89
11.322667,58.88
11.328,58.85
11.333333,58.76
11.338667,58.72
11.344,58.72
11.349333,58.69
11.354667,58.79
11.36,58.76
11.365333,58.89
11.370667,58.85
11.376,58.83
11.381333,58.79
11.386667,58.77
11.392,58.73
11.397333,58.66
11.402667,58.57
11.408,58.48
11.413333,58.41
11.418667,58.37
11.424,58.25
11.429333,58.13
11.434667,58.08
11.44,57.96
11.445333,57.9
11.450667,57.89
11.456,57.89
11.461333,57.91
11.466667,57.92
11.472,57.94
11.477333,57.94
11.482667,58.05
11.488,58.03
11.493333,58.06
11.498667,58.22
11.504,58.4
11.509333,58.51
11.514667,58.62
11.52,58.65
11.525333,58.81
11.530667,58.88
11.536,59
11.541333,59.01
11.546667,59.01
11.552,58.93
11.557333,58.82
11.562667,58.72
11.568,58.61
11.573333,58.52
11.578667,58.43
11.584,58.33
11.589333,58.24
11.594667,58.14
11.6,58.04
11.605333,57.98
11.610667,57.94
11.616,57.95
11.621333,58
11.626667,57.99
11.632,58.07
11.637333,58.26
11.642667,58.43
11.648,58.55
11.653333,58.63
11.658667,58.69
11.664,58.79
11.669333,58.83
11.674667,58.79
11.68,58.75
11.685333,58.7
11.690667,58.7
11.696,58.7
11.701333,58.67
11.706667,58.61
11.712,58.51
11.717333,58.47
11.722667,58.39
11.728,58.32
11.733333,58.23
11.738667,58.13
11.744,58.08
11.749333,58.01
11.754667,57.91
11.76,57.86
11.765333,57.76
11.770667,57.76
11.776,57.7
11.781333,57.67
11.786667,57.59
11.792,57.55
11.797333,57.47
11.802667,57.43
11.808,57.41
11.813333,57.4
11.818667,57.39
11.824,57.36
11.829333,57.33
11.834667,57.32
11.84,57.34
11.845333,57.34
11.850667,57.43
11.856,57.39
11.861333,57.41
11.866667,57.55
11.872,57.65
11.877333,57.81
11.882667,57.85
11.888,57.79
11.893333,57.73
11.898667,57.71
11.904,57.62
11.909333,57.57
11.914667,57.46
11.92,57.38
11.925333,57.36
11.930667,57.29
11.936,57.3
11.941333,57.32
11.946667,57.34
11.952,57.4
11.957333,57.49
11.962667,57.57
11.968,57.75
11.973333,57.85
11.978667,57.88
11.984,57.98
11.989333,57.95
11.994667,57.98
12,58.07
12.005333,58.05
12.010667,58.11
12.016,58.06
12.021333,58.15
12.026667,58.13
12.032,58.14
12.037333,58.15
12.042667,58.06
12.048,58.14
12.053333,58.17
12.058667,58.19
12.064,58.22
12.069333,58.23
12.074667,58.19
12.08,58.14
12.085333,58.13
12.090667,58.09
12.096,58.09
12.101333,58.14
12.106667,58.07
12.112,58.09
12.117333,58.01
12.122667,58.06
12.128,58.01
12.133333,57.94
12.138667,57.88
12.144,57.93
12.149333,57.87
12.154667,57.76
12.16,57.68
12.165333,57.58
12.170667,57.49
12.176,57.44
12.181333,57.38
12.186667,57.32
12.192,57.26
12.197333,57.17
12.202667,57.06
12.208,56.99
12.213333,56.97
12.218667,56.88
12.224,56.82
12.229333,56.78
12.234667,56.74
12.24,56.67
12.245333,56.61
12.250667,56.62
12.256,56.58
12.261333,56.59
12.266667,56.57
12.272,56.58
12.277333,56.57
12.282667,56.49
12.288,56.53
12.293333,56.46
12.298667,56.43
12.304,56.38
12.309333,56.36
12.314667,56.3
12.32,56.26
12.325333,56.18
12.330667,56.11
12.336,56.05
12.341333,56.01
12.346667,55.99
12.352,55.92
12.357333,55.85
12.362667,55.85
12.368,55.91
12.373333,55.84
12.378667,55.81
12.384,55.79
12.389333,55.74
12.394667,55.76
12.4,55.75
12.405333,55.78
12.410667,55.81
12.416,55.86
12.421333,55.89
12.426667,55.93
12.432,55.95
12.437333,56.07
12.442667,56.21
12.448,56.3
12.453333,56.42
12.458667,56.57
12.464,56.61
12.469333,57.02
12.474667,57.07
12.48,57.09
12.485333,57.19
12.490667,57.25
12.496,57.3
12.501333,57.33
12.506667,57.34
12.512,57.34
12.517333,57.26
12.522667,57.25
12.528,57.19
12.533333,57.15
12.538667,57.09
12.544,56.98
12.549333,56.86
12.554667,56.81
12.56,56.75
12.565333,56.66
12.570667,56.61
12.576,56.55
12.581333,56.59
12.586667,56.54
12.592,56.46
12.597333,56.39
12.602667,56.33
12.608,56.25
12.613333,56.17
12.618667,56.14
12.624,56.12
12.629333,56.05
12.634667,56.01
12.64,55.96
12.645333,55.95
12.650667,55.96
12.656,55.95
12.661333,55.95
12.666667,55.96
12.672,55.89
12.677333,55.91
12.682667,56.01
12.688,55.96
12.693333,55.9
12.698667,55.83
12.704,55.81
12.709333,55.77
12.714667,55.68
12.72,55.65
12.725333,55.65
12.730667,55.57
12.736,55.55
12.741333,55.53
12.746667,55.53
12.752,55.49
12.757333,55.46
12.762667,55.5
12.768,55.42
12.773333,55.37
12.778667,55.31
12.784,55.25
12.789333,55.29
12.794667,55.3
12.8,55.25
12.805333,55.22
12.810667,55.18
12.816,55.22
12.821333,55.19
12.826667,55.4
12.832,55.43
12.837333,55.46
12.842667,55.5
12.848,55.52
12.853333,55.48
12.858667,55.42
12.864,55.35
12.869333,55.29
12.874667,55.25
12.88,55.25
12.885333,55.22
12.890667,55.18
12.896,55.22
12.901333,55.22
12.906667,55.21
12.912,55.21
12.917333,55.29
12.922667,55.22
12.928,55.28
12.933333,55.24
12.938667,55.25
12.944,55.23
12.949333,55.26
12.954667,55.2
12.96,55.14
12.965333,55.09
12.970667,55.06
12.976,55
12.981333,54.9
12.986667,54.82
12.992,54.73
12.997333,54.72
13.002667,54.76
13.008,54.84
13.013333,54.92
13.018667,54.98
13.024,55.07
13.029333,55.08
13.034667,55.1
13.04,55.26
13.045333,55.32
13.050667,55.55
13.056,55.8
13.061333,55.87
13.066667,55.88
13.072,55.96
13.077333,55.95
13.082667,55.9
13.088,55.81
13.093333,55.81
13.098667,55.74
13.104,55.64
13.109333,55.62
13.114667,55.6
13.12,55.54
13.125333,55.45
13.130667,55.41
13.136,55.35
13.141333,55.4
13.146667,55.34
13.152,55.25
13.157333,55.22
13.162667,55.13
13.168,55.23
13.173333,55.2
13.178667,55.39
13.184,55.49
13.189333,55.51
13.194667,55.54
13.2,55.62
13.205333,55.71
13.210667,55.89
13.216,55.95
13.221333,55.94
13.226667,55.92
13.232,55.96
13.237333,55.93
13.242667,55.99
13.248,56.03
13.253333,56.05
13.258667,56.04
13.264,56
13.269333,55.89
13.274667,55.82
13.28,55.75
13.285333,55.7
13.290667,55.64
13.296,55.54
13.301333,55.45
13.306667,55.42
13.312,55.5
13.317333,55.54
13.322667,55.6
13.328,55.54
13.333333,55.56
13.338667,55.6
13.344,55.83
13.349333,55.97
13.354667,56.07
13.36,56.16
13.365333,56.22
13.370667,56.33
13.376,56.31
13.381333,56.61
13.386667,56.75
13.392,56.92
13.397333,56.99
13.402667,57.02
13.408,57.02
13.413333,57.02
13.418667,56.95
13.424,56.91
13.429333,56.88
13.434667,56.86
13.44,56.83
13.445333,56.75
13.450667,56.69
13.456,56.61
13.461333,56.54
13.466667,56.47
13.472,56.39
13.477333,56.34
13.482667,56.3
13.488,56.26
13.493333,56.27
13.498667,56.2
13.504,56.39
13.509333,56.62
13.514667,56.68
13.52,56.82
13.525333,56.91
13.530667,56.92
13.536,57
13.541333,56.97
13.546667,56.97
13.552,56.91
13.557333,56.9
13.562667,56.89
13.568,56.82
13.573333,56.76
13.578667,56.71
13.584,56.68
13.589333,56.61
13.594667,56.57
13.6,56.58
13.605333,56.54
13.610667,56.55
13.616,56.59
13.621333,56.71
13.626667,56.69
13.632,56.78
13.637333,56.9
13.642667,56.93
13.648,56.9
13.653333,56.9
13.658667,56.85
13.664,56.78
13.669333,56.77
13.674667,56.78
13.68,56.72
13.685333,56.64
13.690667,56.6
13.696,56.54
13.701333,56.57
13.706667,56.67
13.712,56.76
13.717333,56.79
13.722667,56.86
13.728,57.01
13.733333,57.22
13.738667,57.31
13.744,57.43
13.749333,57.59
13.754667,57.61
13.76,57.6
13.765333,57.56
13.770667,57.47
13.776,57.36
13.781333,57.27
13.786667,57.18
13.792,57.07
13.797333,57.02
13.802667,56.91
13.808,56.96
13.813333,56.96
13.818667,56.88
13.824,56.83
13.829333,56.81
13.834667,56.76
13.84,56.72
13.845333,56.68
13.850667,56.64
13.856,56.56
13.861333,56.45
13.866667,56.36
13.872,56.26
13.877333,56.2
13.882667,56.17
13.888,56.15
13.893333,56.16
13.898667,56.11
13.904,56.06
13.909333,56.06
13.914667,55.98
13.92,55.93
13.925333,55.87
13.930667,55.87
13.936,55.85
13.941333,55.8
13.946667,55.82
13.952,55.79
13.957333,55.76
13.962667,55.68
13.968,55.67
13.973333,56.23
13.978667,56.16
13.984,56.16
13.989333,56.06
13.994667,56.01
14,55.95
14.005333,55.91
14.010667,55.85
14.016,55.79
14.021333,55.73
14.026667,55.75
14.032,55.77
14.037333,55.71
14.042667,55.68
14.048,55.66
14.053333,55.65
14.058667,55.62
14.064,55.59
14.069333,55.83
14.074667,55.81
14.08,55.86
14.085333,55.88
14.090667,55.89
14.096,55.91
14.101333,55.93
14.106667,56.16
14.112,56.29
14.117333,56.26
14.122667,56.21
14.128,56.13
14.133333,56.04
14.138667,55.99
14.144,56.11
14.149333,56.25
14.154667,56.29
14.16,56.27
14.165333,56.28
14.170667,56.29
14.176,56.35
14.181333,56.35
14.186667,56.55
14.192,56.65
14.197333,56.63
14.202667,56.65
14.208,56.65
14.213333,56.71
14.218667,56.76
14.224,56.81
14.229333,56.84
14.234667,56.82
14.24,56.78
14.245333,56.88
14.250667,56.95
14.256,57.06
14.261333,57.12
14.266667,57.16
14.272,57.11
14.277333,57.08
14.282667,57.06
14.288,57.22
14.293333,57.27
14.298667,57.22
14.304,57.24
14.309333,57.34
14.314667,57.36
14.32,57.34
14.325333,57.41
14.330667,57.34
14.336,57.23
14.341333,57.15
14.346667,57.08
14.352,56.98
14.357333,56.96
14.362667,56.9
14.368,56.87
14.373333,56.8
14.378667,56.76
14.384,56.8
14.389333,56.73
14.394667,56.64
14.4,56.61
14.405333,56.65
14.410667,56.66
14.416,56.67
14.421333,56.58
14.426667,56.53
14.432,56.52
14.437333,56.55
14.442667,56.49
14.448,56.47
14.453333,56.49
14.458667,56.43
14.464,56.35
14.469333,56.3
14.474667,56.29
14.48,56.25
14.485333,56.19
14.490667,56.17
14.496,56.22
14.501333,56.23
14.506667,56.33
14.512,56.47
14.517333,56.55
14.522667,56.59
14.528,56.64
14.533333,56.6
14.538667,56.54
14.544,56.46
14.549333,56.42
14.554667,56.3
14.56,56.2
14.565333,56.13
14.570667,56.05
14.576,55.98
14.581333,55.87
14.586667,55.77
14.592,55.73
14.597333,55.72
14.602667,55.69
14.608,55.66
14.613333,55.64
14.618667,55.7
14.624,55.66
14.629333,55.66
14.634667,55.74
14.64,55.77
14.645333,55.83
14.650667,55.94
14.656,56.14
14.661333,56.24
14.666667,56.29
14.672,56.33
14.677333,56.42
14.682667,56.57
14.688,56.73
14.693333,56.82
14.698667,56.95
14.704,57.12
14.709333,57.26
14.714667,57.32
14.72,57.42
14.725333,57.59
14.730667,57.7
14.736,57.87
14.741333,58.01
14.746667,58.25
14.752,58.41
14.757333,58.4
14.762667,58.37
14.768,58.31
14.773333,58.26
14.778667,58.18
14.784,58.08
14.789333,58.01
14.794667,57.98
14.8,58
14.805333,57.93
14.810667,57.9
14.816,57.88
14.821333,57.89
14.826667,57.86
14.832,57.8
14.837333,57.77
14.842667,57.71
14.848,57.66
14.853333,57.6
14.858667,57.55
14.864,57.69
14.869333,57.83
14.874667,57.92
14.88,57.96
14.885333,58
14.890667,58
14.896,57.97
14.901333,58
14.906667,57.95
14.912,57.92
14.917333,57.91
14.922667,58.71
14.928,59
14.933333,59.58
14.938667,59.75
14.944,59.93
14.949333,60.08
14.954667,60.19
14.96,60.34
14.965333,60.42
14.970667,60.43
14.976,60.41
14.981333,60.49
14.986667,60.6
14.992,60.59
14.997333,60.56
15.002667,60.55
15.008,60.51
15.013333,60.45
15.018667,60.4
15.024,60.33
15.029333,60.28
15.034667,60.24
15.04,60.23
15.045333,60.17
15.050667,60.09
15.056,60.02
15.061333,60.04
15.066667,59.93
15.072,59.82
15.077333,59.71
15.082667,59.68
15.088,59.69
15.093333,59.68
15.098667,59.72
15.104,59.67
15.109333,59.71
15.114667,59.76
15.12,59.86
15.125333,59.81
15.130667,59.78
15.136,59.73
15.141333,59.65
15.146667,59.62
15.152,59.57
15.157333,59.51
15.162667,59.43
15.168,59.43
15.173333,59.37
15.178667,59.34
15.184,59.27
15.189333,59.38
15.194667,59.36
15.2,59.45
15.205333,59.54
15.210667,59.59
15.216,59.62
15.221333,59.61
15.226667,59.57
15.232,59.59
15.237333,59.54
15.242667,59.53
15.248,59.5
15.253333,59.48
15.258667,59.46
15.264,59.41
15.269333,59.38
15.274667,59.38
15.28,59.35
15.285333,59.35
15.290667,59.31
15.296,59.22
15.301333,59.12
15.306667,59.05
15.312,58.99
15.317333,58.95
15.322667,58.87
15.328,58.76
15.333333,58.67
15.338667,58.56
15.344,58.45
15.349333,58.34
15.354667,58.23
15.36,58.16
15.365333,58.37
15.370667,58.33
15.376,58.24
15.381333,58.16
15.386667,58.11
15.392,58.02
15.397333,57.91
15.402667,57.82
15.408,57.75
15.413333,57.65
15.418667,57.58
15.424,57.47
15.429333,57.37
15.434667,57.31
15.44,57.3
15.445333,57.27
15.450667,57.23
15.456,57.3
15.461333,57.31
15.466667,57.32
15.472,57.37
15.477333,57.4
15.482667,57.39
15.488,57.39
15.493333,57.38
15.498667,57.4
15.504,57.45
15.509333,57.37
15.514667,57.28
15.52,57.25
15.525333,57.25
15.530667,57.18
15.536,57.15
15.541333,57.11
15.546667,57.03
15.552,57.01
15.557333,56.94
15.562667,56.86
15.568,56.8
15.573333,56.8
15.578667,56.74
15.584,56.7
15.589333,56.65
15.594667,56.59
15.6,56.5
15.605333,56.4
15.610667,56.35
15.616,56.3
15.621333,56.21
15.626667,56.16
15.632,56.06
15.637333,55.95
15.642667,55.83
15.648,55.79
15.653333,55.78
15.658667,55.69
15.664,55.59
15.669333,55.55
15.674667,55.44
15.68,55.39
15.685333,55.3
15.690667,55.18
15.696,55.12
15.701333,54.99
15.706667,54.9
15.712,54.82
15.717333,54.73
15.722667,54.65
15.728,54.58
15.733333,54.5
15.738667,54.46
15.744,54.39
15.749333,54.44
15.754667,54.64
15.76,54.64
15.765333,54.67
15.770667,54.74
15.776,54.77
15.781333,54.8
15.786667,54.93
15.792,55.04
15.797333,55.03
15.802667,54.99
15.808,55.03
15.813333,55.02
15.818667,55.02
15.824,55.01
15.829333,55.02
15.834667,55.12
15.84,55.32
15.845333,55.37
15.850667,55.42
15.856,55.46
15.861333,55.6
15.866667,55.69
15.872,55.68
15.877333,55.75
15.882667,55.8
15.888,55.81
15.893333,55.84
15.898667,55.83
15.904,55.83
15.909333,55.84
15.914667,55.79
15.92,55.78
15.925333,55.77
15.930667,55.68
15.936,55.64
15.941333,55.64
15.946667,55.56
15.952,55.51
15.957333,55.43
15.962667,55.39
15.968,55.35
15.973333,55.34
15.978667,55.29
15.984,55.27
15.989333,55.29
15.994667,55.29
16,55.42
16.005333,55.39
16.010667,55.46
16.016,55.47
16.021333,55.48
16.026667,55.41
16.032,55.37
16.037333,55.33
16.042667,55.28
16.048,55.23
16.053333,55.2
16.058667,55.11
16.064,55.15
16.069333,55.17
16.074667,55.22
16.08,55.19
16.085333,55.17
16.090667,55.13
16.096,55.07
16.101333,54.96
16.106667,54.89
16.112,54.87
16.117333,54.8
16.122667,54.75
16.128,54.79
16.133333,54.8
16.138667,54.83
16.144,54.95
16.149333,55.01
16.154667,54.99
16.16,55.02
16.165333,55.01
16.170667,54.99
16.176,54.94
16.181333,54.92
16.186667,54.96
16.192,54.92
16.197333,54.93
16.202667,54.89
16.208,54.9
16.213333,55.08
16.218667,55.15
16.224,55.16
16.229333,55.26
16.234667,55.39
16.24,55.47
16.245333,55.59
16.250667,55.64
16.256,55.72
16.261333,55.85
16.266667,55.87
16.272,55.89
16.277333,55.87
16.282667,55.92
16.288,56
16.293333,56.17
16.298667,56.14
16.304,56.13
16.309333,56.07
16.314667,55.97
16.32,55.87
16.325333,55.81
16.330667,55.79
16.336,55.76
16.341333,55.73
16.346667,55.73
16.352,55.68
16.357333,55.63
16.362667,55.55
16.368,55.46
16.373333,55.39
16.378667,55.29
16.384,55.22
16.389333,55.14
16.394667,55.02
16.4,54.98
16.405333,54.99
16.410667,54.93
16.416,54.84
16.421333,54.78
16.426667,54.73
16.432,54.64
16.437333,54.6
16.442667,54.58
16.448,54.51
16.453333,54.5
16.458667,54.5
16.464,54.44
16.469333,54.34
16.474667,54.28
16.48,54.19
16.485333,54.15
16.490667,54.14
16.496,54.12
16.501333,54.11
16.506667,54.07
16.512,54.02
16.517333,53.92
16.522667,53.83
16.528,53.74
16.533333,53.65
16.538667,53.6
16.544,53.52
16.549333,53.47
16.554667,53.39
16.56,53.41
16.565333,53.38
16.570667,53.44
16.576,53.57
16.581333,53.71
16.586667,53.94
16.592,53.97
16.597333,54.14
16.602667,54.3
16.608,54.5
16.613333,54.49
16.618667,54.48
16.624,54.44
16.629333,54.47
16.634667,54.51
16.64,54.57
16.645333,54.57
16.650667,54.52
16.656,54.5
16.661333,54.45
16.666667,54.41
16.672,54.46
16.677333,54.47
16.682667,54.43
16.688,54.43
16.693333,54.42
16.698667,54.34
16.704,54.3
16.709333,54.41
16.714667,54.44
16.72,54.44
16.725333,54.52
16.730667,54.58
16.736,54.76
16.741333,54.92
16.746667,54.97
16.752,54.97
16.757333,54.96
16.762667,54.89
16.768,54.87
16.773333,54.88
16.778667,54.83
16.784,55.03
16.789333,55.05
16.794667,55.02
16.8,54.96
16.805333,54.92
16.810667,54.97
16.816,55.05
16.821333,55.07
16.826667,55.12
16.832,55.14
16.837333,55.18
16.842667,55.13
16.848,55.22
16.853333,55.5
16.858667,55.49
16.864,55.42
16.869333,55.34
16.874667,55.27
16.88,55.25
16.885333,55.18
16.890667,55.11
16.896,55.05
16.901333,55.06
16.906667,55.04
16.912,55.11
16.917333,55.14
16.922667,55.22
16.928,55.29
16.933333,55.21
16.938667,55.21
16.944,55.27
16.949333,55.38
16.954667,55.48
16.96,55.45
16.965333,55.47
16.970667,55.57
16.976,55.64
16.981333,55.75
16.986667,55.78
16.992,55.72
16.997333,55.65
17.002667,55.56
17.008,55.54
17.013333,55.52
17.018667,55.43
17.024,55.41
17.029333,55.42
17.034667,55.3
17.04,55.22
17.045333,55.15
17.050667,55.18
17.056,55.14
17.061333,55.18
17.066667,55.22
17.072,55.14
17.077333,55.11
17.082667,55.14
17.088,55.21
17.093333,55.09
17.098667,55.01
17.104,54.95
17.109333,54.9
17.114667,54.89
17.12,54.82
17.125333,54.78
17.130667,54.76
17.136,54.67
17.141333,54.6
17.146667,54.55
17.152,54.61
17.157333,54.58
17.162667,54.54
17.168,54.56
17.173333,54.55
17.178667,54.54
17.184,54.59
17.189333,54.64
17.194667,54.56
17.2,54.66
17.205333,54.68
17.210667,54.66
17.216,54.72
17.221333,54.72
17.226667,54.75
17.232,54.73
17.237333,54.71
17.242667,54.67
17.248,54.58
17.253333,54.52
17.258667,54.49
17.264,54.43
17.269333,54.42
17.274667,54.42
17.28,54.36
17.285333,54.39
17.290667,54.42
17.296,54.41
17.301333,54.3
17.306667,54.23
17.312,54.15
17.317333,54.04
17.322667,53.98
17.328,53.92
17.333333,53.88
17.338667,53.87
17.344,53.89
17.349333,53.87
17.354667,53.96
17.36,53.89
17.365333,53.86
17.370667,53.89
17.376,53.91
17.381333,53.96
17.386667,53.96
17.392,53.94
17.397333,53.92
17.402667,53.95
17.408,53.9
17.413333,53.88
17.418667,53.83
17.424,53.79
17.429333,53.82
17.434667,53.74
17.44,53.75
17.445333,53.69
17.450667,53.65
17.456,53.66
17.461333,53.72
17.466667,53.72
17.472,53.75
17.477333,53.8
17.482667,53.86
17.488,53.92
17.493333,53.87
17.498667,53.87
17.504,53.89
17.509333,54
17.514667,54.03
17.52,54.05
17.525333,54.07
17.530667,54.1
17.536,54.06
17.541333,54
17.546667,54.07
17.552,54.12
17.557333,54.14
17.562667,54.11
17.568,54.04
17.573333,54.05
17.578667,54.04
17.584,54.04
17.589333,54.06
17.594667,54.12
17.6,54.06
17.605333,54.03
17.610667,54
17.616,54.06
17.621333,54
17.626667,53.99
17.632,53.93
17.637333,53.92
17.642667,53.87
17.648,53.94
17.653333,54.02
17.658667,54.03
17.664,54.07
17.669333,54.19
17.674667,54.3
17.68,54.35
17.685333,54.42
17.690667,54.49
17.696,54.45
17.701333,54.41
17.706667,54.52
17.712,54.52
17.717333,54.47
17.722667,54.45
17.728,54.5
17.733333,54.45
17.738667,54.4
17.744,54.37
17.749333,54.36
17.754667,54.42
17.76,54.42
17.765333,54.49
17.770667,54.83
17.776,54.9
17.781333,54.96
17.786667,54.95
17.792,55.01
17.797333,55.01
17.802667,54.96
17.808,55
17.813333,54.95
17.818667,54.91
17.824,54.93
17.829333,54.92
17.834667,54.9
17.84,54.82
17.845333,54.76
17.850667,54.73
17.856,54.75
17.861333,54.69
17.866667,54.66
17.872,54.61
17.877333,54.56
17.882667,54.6
17.888,54.56
17.893333,54.58
17.898667,54.56
17.904,54.51
17.909333,54.69
17.914667,54.64
17.92,54.6
17.925333,54.58
17.930667,54.6
17.936,54.58
17.941333,54.63
17.946667,54.72
17.952,54.73
17.957333,54.68
17.962667,54.63
17.968,54.62
17.973333,54.7
17.978667,54.65
17.984,54.66
17.989333,54.61
17.994667,54.65
18,54.81
18.005333,54.98
18.010667,55.1
18.016,55.22
18.021333,55.38
18.026667,55.41
18.032,55.43
18.037333,55.41
18.042667,55.38
18.048,55.32
18.053333,55.27
18.058667,55.19
18.064,55.16
18.069333,55.11
18.074667,55.17
18.08,55.19
18.085333,55.12
18.090667,55.04
18.096,54.94
18.101333,54.89
18.106667,54.87
18.112,54.86
18.117333,54.8
18.122667,54.79
18.128,54.72
18.133333,54.68
18.138667,54.67
18.144,54.63
18.149333,54.69
18.154667,54.65
18.16,54.69
18.165333,54.73
18.170667,54.71
18.176,54.71
18.181333,54.7
18.186667,54.68
18.192,54.82
18.197333,54.83
18.202667,54.81
18.208,54.8
18.213333,54.71
18.218667,54.65
18.224,54.63
18.229333,54.61
18.234667,54.65
18.24,54.61
18.245333,54.52
18.250667,54.45
18.256,54.4
18.261333,54.4
18.266667,54.51
18.272,54.5
18.277333,54.46
18.282667,54.45
18.288,54.74
18.293333,54.85
18.298667,54.86
18.304,54.97
18.309333,54.94
18.314667,54.87
18.32,54.87
18.325333,54.89
18.330667,54.89
18.336,54.82
18.341333,54.82
18.346667,54.84
18.352,54.89
18.357333,54.94
18.362667,55
18.368,54.94
18.373333,54.94
18.378667,54.93
18.384,55
18.389333,55
18.394667,55.03
18.4,55.07
18.405333,55
18.410667,54.97
18.416,54.95
18.421333,54.9
18.426667,54.85
18.432,54.85
18.437333,54.84
18.442667,54.81
18.448,54.9
18.453333,54.93
18.458667,54.97
18.464,54.96
18.469333,54.96
18.474667,55.01
18.48,54.98
18.485333,55.04
18.490667,54.99
18.496,54.96
18.501333,54.98
18.506667,55.04
18.512,55.09
18.517333,55.13
18.522667,55.07
18.528,55.16
18.533333,55.16
18.538667,55.14
18.544,55.27
18.549333,55.35
18.554667,55.3
18.56,55.24
18.565333,55.38
18.570667,55.33
18.576,55.33
18.581333,55.27
18.586667,55.26
18.592,55.21
18.597333,55.2
18.602667,55.25
18.608,55.22
18.613333,55.2
18.618667,55.17
18.624,55.14
18.629333,55.13
18.634667,55.11
18.64,55.1
18.645333,55.21
18.650667,55.16
18.656,55.16
18.661333,55.27
18.666667,55.36
18.672,55.42
18.677333,55.54
18.682667,55.53
18.688,55.58
18.693333,55.65
18.698667,55.6
18.704,55.59
18.709333,55.67
18.714667,55.71
18.72,55.73
18.725333,55.84
18.730667,55.86
18.736,55.94
18.741333,55.99
18.746667,55.99
18.752,56.08
18.757333,56.11
18.762667,56.09
18.768,56.17
18.773333,56.15
18.778667,56.18
18.784,56.2
18.789333,56.2
18.794667,56.23
18.8,56.3
18.805333,56.31
18.810667,56.32
18.816,56.26
18.821333,56.16
18.826667,56.21
18.832,56.11
18.837333,56.03
18.842667,55.98
18.848,55.93
18.853333,55.96
18.858667,56
18.864,56.15
18.869333,56.23
18.874667,56.34
18.88,56.51
18.885333,56.48
18.890667,56.49
18.896,56.46
18.901333,56.38
18.906667,56.32
18.912,56.31
18.917333,56.19
18.922667,56.1
18.928,56.05
18.933333,56.07
18.938667,56.18
18.944,56.14
18.949333,56.16
18.954667,56.17
18.96,56.13
18.965333,56.08
18.970667,56.09
18.976,56.02
18.981333,55.96
18.986667,55.98
18.992,55.9
18.997333,55.87
19.002667,55.86
19.008,55.79
19.013333,55.78
19.018667,55.82
19.024,55.82
19.029333,55.8
19.034667,55.77
19.04,55.78
19.045333,55.82
19.050667,55.88
19.056,56.1
19.061333,56.2
19.066667,56.34
19.072,56.61
19.077333,56.69
19.082667,56.71
19.088,56.74
19.093333,56.82
19.098667,56.92
19.104,56.94
19.109333,57.12
19.114667,57.27
19.12,57.48
19.125333,57.53
19.130667,57.72
19.136,57.99
19.141333,58.28
19.146667,58.55
19.152,58.71
19.157333,58.79
19.162667,58.81
19.168,59.03
19.173333,59.19
19.178667,59.56
19.184,59.79
19.189333,60.07
19.194667,60.25
19.2,60.49
19.205333,60.89
19.210667,61.19
19.216,61.43
19.221333,61.57
19.226667,61.69
19.232,61.96
19.237333,62.04
19.242667,62.07
19.248,62.17
19.253333,62.12
19.258667,62.06
19.264,62.1
19.269333,62.16
19.274667,62.2
19.28,62.25
19.285333,62.24
19.290667,62.21
19.296,62.15
19.301333,62.08
19.306667,62
19.312,61.95
19.317333,61.85
19.322667,61.78
19.328,61.7
19.333333,61.59
19.338667,61.52
19.344,61.43
19.349333,61.44
19.354667,61.42
19.36,61.38
19.365333,61.35
19.370667,61.32
19.376,61.26
19.381333,61.18
19.386667,61.11
19.392,61.06
19.397333,60.98
19.402667,60.89
19.408,60.79
19.413333,60.69
19.418667,60.55
19.424,60.43
19.429333,60.35
19.434667,60.23
19.44,60.13
19.445333,60
19.450667,59.86
19.456,59.75
19.461333,59.63
19.466667,59.58
19.472,59.49
19.477333,59.45
19.482667,59.36
19.488,59.29
19.493333,59.22
19.498667,59.17
19.504,59.07
19.509333,59.03
19.514667,58.93
19.52,58.85
19.525333,58.8
19.530667,58.76
19.536,58.66
19.541333,58.59
19.546667,58.57
19.552,58.52
19.557333,58.55
19.562667,58.47
19.568,58.45
19.573333,58.47
19.578667,58.6
19.584,58.69
19.589333,58.7
19.594667,58.71
19.6,58.69
19.605333,58.75
19.610667,58.76
19.616,58.78
19.621333,58.75
19.626667,58.78
19.632,58.72
19.637333,58.65
19.642667,58.6
19.648,58.56
19.653333,58.53
19.658667,58.48
19.664,58.61
19.669333,58.6
19.674667,58.61
19.68,58.6
19.685333,58.67
19.690667,58.72
19.696,58.79
19.701333,58.97
19.706667,58.99
19.712,58.94
19.717333,58.89
19.722667,58.87
19.728,58.85
19.733333,58.93
19.738667,58.89
19.744,58.84
19.749333,58.92
19.754667,59
19.76,58.93
19.765333,58.92
19.770667,58.89
19.776,58.89
19.781333,58.9
19.786667,58.89
19.792,58.91
19.797333,58.88
19.802667,58.93
19.808,58.95
19.813333,59.16
19.818667,59.25
19.824,59.49
19.829333,59.68
19.834667,60.02
19.84,60.58
19.845333,61.81
19.850667,63.14
19.856,63.71
19.861333,63.86
19.866667,63.93
19.872,64.06
19.877333,64.11
19.882667,64.11
19.888,64.19
19.893333,64.37
19.898667,64.61
19.904,64.79
19.909333,65.02
19.914667,65.43
19.92,65.83
19.925333,66.19
19.930667,66.42
19.936,66.69
19.941333,66.8
19.946667,66.81
19.952,66.73
19.957333,66.69
19.962667,66.63
19.968,66.51
19.973333,66.37
19.978667,66.33
19.984,66.28
19.989333,66.19
19.994667,66.06
20,65.93
20.005333,65.79
20.010667,65.69
20.016,65.66
20.021333,65.64
20.026667,65.64
20.032,65.73
20.037333,65.74
20.042667,65.8
20.048,65.81
20.053333,65.81
20.058667,65.78
20.064,65.71
20.069333,65.72
20.074667,65.71
20.08,65.75
20.085333,65.69
20.090667,65.7
20.096,65.67
20.101333,65.62
20.106667,65.57
20.112,65.55
20.117333,65.51
20.122667,65.47
20.128,65.45
20.133333,65.43
20.138667,65.39
20.144,65.42
20.149333,65.38
20.154667,65.32
20.16,65.26
20.165333,65.24
20.170667,65.17
20.176,65.13
20.181333,65.07
20.186667,65
20.192,64.98
20.197333,64.88
20.202667,64.86
20.208,64.83
20.213333,64.83
20.218667,64.85
20.224,64.9
20.229333,65.08
20.234667,65.13
20.24,65.13
20.245333,65.15
20.250667,65.05
20.256,64.99
20.261333,64.88
20.266667,64.8
20.272,64.69
20.277333,64.61
20.282667,64.56
20.288,64.51
20.293333,64.4
20.298667,64.3
20.304,64.15
20.309333,64.01
20.314667,63.85
20.32,63.72
20.325333,63.58
20.330667,63.45
20.336,63.31
20.341333,63.16
20.346667,63.06
20.352,62.94
20.357333,62.89
20.362667,62.84
20.368,62.74
20.373333,62.64
20.378667,62.58
20.384,62.53
20.389333,62.53
20.394667,62.47
20.4,62.43
20.405333,62.36
20.410667,62.23
20.416,62.13
20.421333,62.08
20.426667,61.98
20.432,61.87
20.437333,61.84
20.442667,61.89
20.448,61.84
20.453333,61.82
20.458667,61.76
20.464,61.64
20.469333,61.52
20.474667,61.41
20.48,61.37
20.485333,61.3
20.490667,61.23
20.496,61.14
20.501333,61.07
20.506667,60.98
20.512,60.84
20.517333,60.7
20.522667,60.58
20.528,60.47
20.533333,60.35
20.538667,60.22
20.544,60.08
20.549333,59.94
20.554667,59.84
20.56,59.73
20.565333,59.66
20.570667,59.55
20.576,59.46
20.581333,59.36
20.586667,59.29
20.592,59.27
20.597333,59.26
20.602667,59.34
20.608,59.39
20.613333,59.48
20.618667,60.27
20.624,60.97
20.629333,61.69
20.634667,62.27
20.64,62.8
20.645333,63.01
20.650667,63.07
20.656,62.98
20.661333,62.86
20.666667,62.71
20.672,62.56
20.677333,62.4
20.682667,62.24
20.688,62.09
20.693333,61.97
20.698667,61.84
20.704,61.74
20.709333,61.68
20.714667,61.67
20.72,61.64
20.725333,61.62
20.730667,61.69
20.736,61.78
20.741333,61.99
20.746667,62.14
20.752,62.33
20.757333,62.44
20.762667,62.73
20.768,62.92
20.773333,63.11
20.778667,63.1
20.784,63.01
20.789333,62.9
20.794667,62.79
20.8,62.68
20.805333,62.54
20.810667,62.39
20.816,62.27
20.821333,62.14
20.826667,61.99
20.832,61.84
20.837333,61.68
20.842667,61.55
20.848,61.42
20.853333,61.28
20.858667,61.16
20.864,61.02
20.869333,60.88
20.874667,60.79
20.88,60.75
20.885333,60.7
20.890667,60.67
20.896,60.57
20.901333,60.51
20.906667,60.49
20.912,60.47
20.917333,60.41
20.922667,60.4
20.928,60.34
20.933333,60.29
20.938667,60.25
20.944,60.21
20.949333,60.2
20.954667,60.16
20.96,60.09
20.965333,60.01
20.970667,59.91
20.976,59.81
20.981333,59.69
20.986667,59.58
20.992,59.48
20.997333,59.37
21.002667,59.25
21.008,59.12
21.013333,59.05
21.018667,58.94
21.024,58.84
21.029333,58.74
21.034667,58.64
21.04,58.51
21.045333,58.44
21.050667,58.34
21.056,58.28
21.061333,58.13
21.066667,58.06
21.072,57.98
21.077333,57.86
21.082667,57.78
21.088,57.68
21.093333,57.61
21.098667,57.58
21.104,57.61
21.109333,57.58
21.114667,57.67
21.12,57.74
21.125333,57.84
21.130667,57.96
21.136,57.91
21.141333,57.94
21.146667,58.17
21.152,58.16
21.157333,58.16
21.162667,58.13
21.168,58.09
21.173333,58.09
21.178667,58.13
21.184,58.14
21.189333,58.09
21.194667,58.08
21.2,58.02
21.205333,57.97
21.210667,57.92
21.216,57.92
21.221333,58.02
21.226667,58.01
21.232,57.95
21.237333,57.91
21.242667,57.86
21.248,57.86
21.253333,57.8
21.258667,57.81
21.264,57.86
21.269333,57.85
21.274667,57.95
21.28,57.94
21.285333,57.88
21.290667,57.84
21.296,57.73
21.301333,57.68
21.306667,57.62
21.312,57.57
21.317333,57.59
21.322667,57.73
21.328,57.83
21.333333,57.87
21.338667,57.92
21.344,57.92
21.349333,57.97
21.354667,57.91
21.36,57.88
21.365333,57.86
21.370667,57.86
21.376,57.92
21.381333,57.97
21.386667,58.01
21.392,58.12
21.397333,58.11
21.402667,58.06
21.408,58.03
21.413333,58.11
21.418667,58.15
21.424,58.2
21.429333,58.25
21.434667,58.2
21.44,58.19
21.445333,58.14
21.450667,58.17
21.456,58.16
21.461333,58.14
21.466667,58.15
21.472,58.16
21.477333,58.21
21.482667,58.25
21.488,58.24
21.493333,58.25
21.498667,58.33
21.504,58.36
21.509333,58.34
21.514667,58.25
21.52,58.2
21.525333,58.22
21.530667,58.22
21.536,58.21
21.541333,58.21
21.546667,58.18
21.552,58.11
21.557333,58.18
21.562667,58.19
21.568,58.22
21.573333,58.16
21.578667,58.18
21.584,58.13
21.589333,58.12
21.594667,58.2
21.6,58.2
21.605333,58.08
21.610667,58.05
21.616,58.06
21.621333,58.14
21.626667,58.35
21.632,58.54
21.637333,59.03
21.642667,59.46
21.648,59.47
21.653333,59.47
21.658667,59.51
21.664,59.54
21.669333,59.54
21.674667,59.48
21.68,59.46
21.685333,59.43
21.690667,59.61
21.696,59.73
21.701333,59.92
21.706667,60
21.712,60.14
21.717333,60.3
21.722667,60.41
21.728,60.57
21.733333,60.65
21.738667,60.76
21.744,60.8
21.749333,60.88
21.754667,60.98
21.76,61.18
21.765333,61.27
21.770667,61.3
21.776,61.46
21.781333,61.42
21.786667,61.49
21.792,61.51
21.797333,61.67
21.802667,61.7
21.808,61.66
21.813333,61.65
21.818667,61.61
21.824,61.6
21.829333,61.58
21.834667,61.52
21.84,61.51
21.845333,61.42
21.850667,61.37
21.856,61.26
21.861333,61.19
21.866667,61.11
21.872,61.09
21.877333,61.06
21.882667,61.05
21.888,61.08
21.893333,61.06
21.898667,61.06
21.904,61.13
21.909333,61.13
21.914667,61.08
21.92,61.04
21.925333,60.96
21.930667,60.84
21.936,60.73
21.941333,60.65
21.946667,60.52
21.952,60.42
21.957333,60.31
21.962667,60.19
21.968,60.06
21.973333,59.93
21.978667,59.8
21.984,59.66
21.989333,59.61
21.994667,59.55
22,59.44
22.005333,59.33
22.010667,59.24
22.016,59.15
22.021333,59.11
22.026667,59.71
22.032,60.76
22.037333,61.36
22.042667,61.71
22.048,62.13
22.053333,62.64
22.058667,62.79
22.064,62.76
22.069333,62.72
22.074667,62.69
22.08,62.6
22.085333,62.51
22.090667,62.52
22.096,62.49
22.101333,62.39
22.106667,62.36
22.112,62.33
22.117333,62.21
22.122667,62.09
22.128,62.13
22.133333,62.07
22.138667,62.04
22.144,61.99
22.149333,61.91
22.154667,61.85
22.16,61.82
22.165333,61.73
22.170667,61.66
22.176,61.61
22.181333,61.56
22.186667,61.47
22.192,61.39
22.197333,61.32
22.202667,61.22
22.208,61.12
22.213333,61.06
22.218667,60.99
22.224,60.89
22.229333,60.82
22.234667,60.71
22.24,60.61
22.245333,60.48
22.250667,60.37
22.256,60.24
22.261333,60.19
22.266667,60.11
22.272,59.98
22.277333,59.87
22.282667,59.79
22.288,59.73
22.293333,59.6
22.298667,59.48
22.304,59.39
22.309333,59.27
22.314667,59.16
22.32,59.07
22.325333,58.96
22.330667,58.89
22.336,58.79
22.341333,58.69
22.346667,58.6
22.352,58.53
22.357333,58.48
22.362667,58.39
22.368,58.29
22.373333,58.23
22.378667,58.3
22.384,58.46
22.389333,58.63
22.394667,58.6
22.4,58.64
22.405333,58.61
22.410667,58.59
22.416,58.53
22.421333,58.45
22.426667,58.39
22.432,58.28
22.437333,58.25
22.442667,58.18
22.448,58.12
22.453333,58.1
22.458667,58.07
22.464,58.05
22.469333,58.02
22.474667,57.98
22.48,58.01
22.485333,58.06
22.490667,58.15
22.496,58.25
22.501333,58.27
22.506667,58.38
22.512,58.53
22.517333,58.65
22.522667,58.64
22.528,58.69
22.533333,58.64
22.538667,58.57
22.544,58.55
22.549333,58.53
22.554667,58.53
22.56,58.51
22.565333,58.5
22.570667,58.49
22.576,58.45
22.581333,58.4
22.586667,58.42
22.592,58.39
22.597333,58.29
22.602667,58.22
22.608,58.22
22.613333,58.15
22.618667,58.09
22.624,58.11
22.629333,58.1
22.634667,58.03
22.64,57.96
22.645333,57.93
22.650667,57.86
22.656,57.76
22.661333,57.75
22.666667,57.69
22.672,57.62
22.677333,57.56
22.682667,57.53
22.688,57.53
22.693333,57.52
22.698667,57.47
22.704,57.43
22.709333,57.45
22.714667,57.49
22.72,57.59
22.725333,57.65
22.730667,57.86
22.736,57.9
22.741333,57.83
22.746667,57.8
22.752,57.83
22.757333,57.97
22.762667,57.94
22.768,57.88
22.773333,57.83
22.778667,57.8
22.784,57.71
22.789333,57.66
22.794667,57.57
22.8,57.51
22.805333,57.42
22.810667,57.33
22.816,57.23
22.821333,57.15
22.826667,57.1
22.832,57.08
22.837333,57.03
22.842667,56.93
22.848,56.85
22.853333,56.79
22.858667,56.73
22.864,56.67
22.869333,56.66
22.874667,56.61
22.88,56.56
22.885333,56.52
22.890667,56.47
22.896,56.46
22.901333,56.51
22.906667,56.48
22.912,56.47
22.917333,56.49
22.922667,56.51
22.928,56.61
22.933333,56.94
22.938667,57.11
22.944,57.29
22.949333,57.42
22.954667,57.44
22.96,57.52
22.965333,57.59
22.970667,57.56
22.976,57.58
22.981333,57.58
22.986667,57.52
22.992,57.47
22.997333,57.39
23.002667,57.28
23.008,57.2
23.013333,57.11
23.018667,57
23.024,56.9
23.029333,56.77
23.034667,56.69
23.04,56.57
23.045333,56.45
23.050667,56.32
23.056,56.21
23.061333,56.1
23.066667,56.03
23.072,55.95
23.077333,55.86
23.082667,55.76
23.088,55.68
23.093333,55.58
23.098667,55.48
23.104,55.66
23.109333,55.79
23.114667,55.74
23.12,55.65
23.125333,55.57
23.130667,55.47
23.136,55.38
23.141333,55.27
23.146667,55.19
23.152,55.09
23.157333,55
23.162667,54.92
23.168,54.83
23.173333,54.81
23.178667,54.77
23.184,54.78
23.189333,54.73
23.194667,54.94
23.2,54.89
23.205333,54.99
23.210667,55.22
23.216,55.44
23.221333,55.66
23.226667,55.84
23.232,55.89
23.237333,55.98
23.242667,55.99
23.248,56
23.253333,56
23.258667,56.06
23.264,55.98
23.269333,55.95
23.274667,55.92
23.28,55.88
23.285333,55.8
23.290667,55.78
23.296,55.71
23.301333,55.71
23.306667,55.67
23.312,55.57
23.317333,55.58
23.322667,55.54
23.328,55.54
23.333333,55.51
23.338667,55.47
23.344,55.45
23.349333,55.41
23.354667,55.37
23.36,55.32
23.365333,55.28
23.370667,55.25
23.376,55.24
23.381333,55.17
23.386667,55.15
23.392,55.12
23.397333,55.12
23.402667,55.09
23.408,55.02
23.413333,55
23.418667,54.96
23.424,54.95
23.429333,54.94
23.434667,54.94
23.44,55.03
23.445333,55.14
23.450667,55.15
23.456,55.18
23.461333,55.13
23.466667,55.12
23.472,55.14
23.477333,55.1
23.482667,55.05
23.488,55.21
23.493333,55.38
23.498667,55.34
23.504,55.34
23.509333,55.36
23.514667,55.37
23.52,55.29
23.525333,55.22
23.530667,55.21
23.536,55.15
23.541333,55.07
23.546667,55.09
23.552,55.05
23.557333,55.05
23.562667,55.04
23.568,55.04
23.573333,55.11
23.578667,55.18
23.584,55.22
23.589333,55.23
23.594667,55.24
23.6,55.35
23.605333,55.52
23.610667,55.79
23.616,55.99
23.621333,56.19
23.626667,56.42
23.632,56.68
23.637333,56.73
23.642667,56.83
23.648,57.04
23.653333,57.11
23.658667,57.12
23.664,57.17
23.669333,57.2
23.674667,57.24
23.68,57.26
23.685333,57.26
23.690667,57.32
23.696,57.3
23.701333,57.26
23.706667,57.2
23.712,57.2
23.717333,57.15
23.722667,57.1
23.728,57.1
23.733333,57.03
23.738667,57.03
23.744,56.9
23.749333,56.87
23.754667,56.89
23.76,56.91
23.765333,56.99
23.770667,56.92
23.776,56.89
23.781333,56.86
23.786667,56.82
23.792,56.75
23.797333,56.7
23.802667,56.69
23.808,56.68
23.813333,56.68
23.818667,56.64
23.824,56.6
23.829333,56.64
23.834667,56.59
23.84,56.62
23.845333,56.62
23.850667,56.64
23.856,56.59
23.861333,56.53
23.866667,56.44
23.872,56.34
23.877333,56.27
23.882667,56.21
23.888,56.21
23.893333,56.12
23.898667,56.05
23.904,55.97
23.909333,55.93
23.914667,55.88
23.92,55.81
23.925333,55.83
23.930667,55.97
23.936,56.1
23.941333,56.16
23.946667,56.37
23.952,56.47
23.957333,56.57
23.962667,56.59
23.968,56.68
23.973333,56.85
23.978667,56.76
23.984,56.81
23.989333,56.85
23.994667,56.89
24,57.23
24.005333,57.69
24.010667,58.01
24.016,58.21
24.021333,58.29
24.026667,58.39
24.032,58.44
24.037333,58.62
24.042667,58.7
24.048,58.71
24.053333,58.73
24.058667,58.68
24.064,58.65
24.069333,58.59
24.074667,58.5
24.08,58.46
24.085333,58.38
24.090667,58.34
24.096,58.29
24.101333,58.22
24.106667,58.17
24.112,58.19
24.117333,58.24
24.122667,58.48
24.128,58.72
24.133333,58.98
24.138667,59.59
24.144,60.31
24.149333,60.44
24.154667,60.52
24.16,60.49
24.165333,60.4
24.170667,60.3
24.176,60.19
24.181333,60.06
24.186667,59.92
24.192,59.8
24.197333,59.72
24.202667,59.6
24.208,59.49
24.213333,59.43
24.218667,59.3
24.224,59.23
24.229333,59.12
24.234667,59.03
24.24,58.97
24.245333,59.13
24.250667,59.17
24.256,59.31
24.261333,59.28
24.266667,59.23
24.272,59.2
24.277333,59.14
24.282667,59.11
24.288,59.14
24.293333,59.18
24.298667,59.28
24.304,59.44
24.309333,59.49
24.314667,59.54
24.32,59.58
24.325333,59.61
24.330667,59.83
24.336,59.94
24.341333,60.02
24.346667,60.06
24.352,60.06
24.357333,59.94
24.362667,59.87
24.368,59.87
24.373333,59.81
24.378667,59.73
24.384,59.65
24.389333,59.62
24.394667,59.56
24.4,59.52
24.405333,59.48
24.410667,59.45
24.416,59.37
24.421333,59.27
24.426667,59.21
24.432,59.16
24.437333,59.05
24.442667,58.95
24.448,58.9
24.453333,58.81
24.458667,58.72
24.464,58.6
24.469333,58.47
24.474667,58.35
24.48,58.26
24.485333,58.15
24.490667,58.04
24.496,57.93
24.501333,57.86
24.506667,57.78
24.512,57.71
24.517333,57.64
24.522667,57.57
24.528,57.5
24.533333,57.44
24.538667,57.38
24.544,57.31
24.549333,57.31
24.554667,57.23
24.56,57.21
24.565333,57.19
24.570667,57.15
24.576,57.16
24.581333,57.25
24.586667,57.35
24.592,57.34
24.597333,57.33
24.602667,57.27
24.608,57.29
24.613333,57.32
24.618667,57.36
24.624,57.28
24.629333,57.24
24.634667,57.24
24.64,57.22
24.645333,57.15
24.650667,57.06
24.656,57.01
24.661333,56.9
24.666667,56.79
24.672,56.7
24.677333,56.61
24.682667,56.6
24.688,56.53
24.693333,56.46
24.698667,56.36
24.704,56.23
24.709333,56.16
24.714667,56.14
24.72,56.09
24.725333,56.13
24.730667,56.28
24.736,56.46
24.741333,56.48
24.746667,56.64
24.752,56.72
24.757333,56.74
24.762667,56.91
24.768,56.98
24.773333,57.14
24.778667,57.54
24.784,58.36
24.789333,59.11
24.794667,59.46
24.8,59.87
24.805333,60.13
24.810667,60.39
24.816,60.68
24.821333,61.01
24.826667,61.36
24.832,61.46
24.837333,61.59
24.842667,61.63
24.848,61.68
24.853333,61.89
24.858667,61.96
24.864,61.94
24.869333,61.86
24.874667,61.72
24.88,61.6
24.885333,61.46
24.890667,61.32
24.896,61.2
24.901333,61.07
24.906667,60.95
24.912,60.82
24.917333,60.75
24.922667,60.62
24.928,60.51
24.933333,60.4
24.938667,60.31
24.944,60.2
24.949333,60.1
24.954667,59.97
24.96,59.89
24.965333,59.79
24.970667,59.68
24.976,59.57
24.981333,59.47
24.986667,59.38
24.992,59.27
24.997333,59.18
25.002667,59.07
25.008,59
25.013333,58.88
25.018667,58.76
25.024,58.73
25.029333,58.73
25.034667,58.72
25.04,58.73
25.045333,58.89
25.050667,59.06
25.056,59.06
25.061333,59.1
25.066667,59.21
25.072,59.23
25.077333,59.34
25.082667,59.34
25.088,59.29
25.093333,59.24
25.098667,59.19
25.104,59.26
25.109333,59.27
25.114667,59.33
25.12,59.39
25.125333,59.54
25.130667,59.73
25.136,59.96
25.141333,60.13
25.146667,60.17
25.152,60.19
25.157333,60.2
25.162667,60.29
25.168,60.22
25.173333,60.1
25.178667,59.98
25.184,59.88
25.189333,59.79
25.194667,59.67
25.2,59.57
25.205333,59.49
25.210667,59.4
25.216,59.35
25.221333,59.25
25.226667,59.19
25.232,59.11
25.237333,59.03
25.242667,59.03
25.248,58.96
25.253333,58.98
25.258667,58.99
25.264,58.97
25.269333,59.09
25.274667,59.04
25.28,58.98
25.285333,58.86
25.290667,58.76
25.296,58.62
25.301333,58.51
25.306667,58.39
25.312,58.25
25.317333,58.11
25.322667,57.99
25.328,57.87
25.333333,57.72
25.338667,57.62
25.344,57.51
25.349333,57.46
25.354667,57.43
25.36,57.74
25.365333,57.93
25.370667,57.99
25.376,58.05
25.381333,58.1
25.386667,58.15
25.392,58.1
25.397333,58.06
25.402667,58.07
25.408,58.04
25.413333,57.97
25.418667,57.93
25.424,57.87
25.429333,57.79
25.434667,57.78
25.44,57.67
25.445333,57.61
25.450667,57.61
25.456,57.55
25.461333,57.46
25.466667,57.48
25.472,57.5
25.477333,57.44
25.482667,57.43
25.488,57.39
25.493333,57.3
25.498667,57.27
25.504,57.25
25.509333,57.3
25.514667,57.24
25.52,57.16
25.525333,57.07
25.530667,57.01
25.536,56.92
25.541333,56.81
25.546667,56.75
25.552,56.72
25.557333,56.61
25.562667,56.73
25.568,56.76
25.573333,56.7
25.578667,56.72
25.584,56.8
25.589333,56.75
25.594667,57.2
25.6,57.36
25.605333,57.59
25.610667,57.66
25.616,57.68
25.621333,57.72
25.626667,57.72
25.632,57.74
25.637333,57.75
25.642667,57.77
25.648,57.72
25.653333,57.68
25.658667,57.63
25.664,57.65
25.669333,57.68
25.674667,57.66
25.68,57.68
25.685333,57.74
25.690667,57.78
25.696,57.68
25.701333,57.62
25.706667,57.65
25.712,57.71
25.717333,57.67
25.722667,57.62
25.728,57.53
25.733333,57.43
25.738667,57.31
25.744,57.26
25.749333,57.14
25.754667,57.06
25.76,56.95
25.765333,56.94
25.770667,56.9
25.776,56.79
25.781333,56.72
25.786667,56.71
25.792,56.72
25.797333,56.69
25.802667,56.64
25.808,56.58
25.813333,56.47
25.818667,56.38
25.824,56.3
25.829333,56.23
25.834667,56.21
25.84,56.17
25.845333,56.11
25.850667,56.17
25.856,56.27
25.861333,56.23
25.866667,56.35
25.872,56.7
25.877333,56.81
25.882667,57.03
25.888,57.11
25.893333,57.09
25.898667,57.07
25.904,57.1
25.909333,57.13
25.914667,57.31
25.92,57.82
25.925333,58.06
25.930667,58.42
25.936,58.54
25.941333,58.62
25.946667,58.68
25.952,58.81
25.957333,58.86
25.962667,58.91
25.968,59.05
25.973333,59.1
25.978667,59.15
25.984,59.29
25.989333,59.33
25.994667,59.46
26,59.51
26.005333,59.65
26.010667,59.77
26.016,60.24
26.021333,60.43
26.026667,60.52
26.032,60.59
26.037333,60.52
26.042667,60.56
26.048,60.59
26.053333,60.58
26.058667,60.56
26.064,60.51
26.069333,60.38
26.074667,60.26
26.08,60.15
26.085333,60.03
26.090667,59.94
26.096,59.79
26.101333,59.67
26.106667,59.57
26.112,59.45
26.117333,59.33
26.122667,59.2
26.128,59.25
26.133333,59.19
26.138667,59.07
26.144,58.96
26.149333,58.9
26.154667,58.87
26.16,58.81
26.165333,58.77
26.170667,58.68
26.176,58.68
26.181333,58.7
26.186667,58.64
26.192,58.59
26.197333,58.57
26.202667,58.64
26.208,58.65
26.213333,58.68
26.218667,58.68
26.224,58.56
26.229333,58.49
26.234667,58.58
26.24,59.06
26.245333,59.58
26.250667,59.81
26.256,59.74
26.261333,59.63
26.266667,59.52
26.272,59.42
26.277333,59.31
26.282667,59.2
26.288,59.1
26.293333,58.98
26.298667,58.84
26.304,58.75
26.309333,58.7
26.314667,58.58
26.32,58.44
26.325333,58.34
26.330667,58.25
26.336,58.16
26.341333,58.11
26.346667,58.1
26.352,58.12
26.357333,58.25
26.362667,58.28
26.368,58.39
26.373333,58.48
26.378667,58.61
26.384,58.68
26.389333,58.88
26.394667,58.95
26.4,58.94
26.405333,59.07
26.410667,59.16
26.416,59.24
26.421333,59.2
26.426667,59.17
26.432,59.08
26.437333,59.03
26.442667,58.94
26.448,58.86
26.453333,58.76
26.458667,58.66
26.464,58.53
26.469333,58.39
26.474667,58.29
26.48,58.18
26.485333,58.08
26.490667,57.99
26.496,57.89
26.501333,57.77
26.506667,57.65
26.512,57.55
26.517333,57.52
26.522667,57.45
26.528,57.5
26.533333,57.46
26.538667,57.62
26.544,57.69
26.549333,57.74
26.554667,57.72
26.56,57.69
26.565333,57.65
26.570667,57.65
26.576,57.69
26.581333,57.64
26.586667,57.6
26.592,57.61
26.597333,57.6
26.602667,57.54
26.608,57.48
26.613333,57.4
26.618667,57.28
26.624,57.18
26.629333,57.08
26.634667,56.94
26.64,57.38
26.645333,57.52
26.650667,57.48
26.656,57.41
26.661333,57.32
26.666667,57.21
26.672,57.11
26.677333,57.04
26.682667,56.95
26.688,56.84
26.693333,56.73
26.698667,56.6
26.704,56.54
26.709333,56.43
26.714667,56.33
26.72,56.26
26.725333,56.28
26.730667,56.24
26.736,56.17
26.741333,56.14
26.746667,56.05
26.752,56
26.757333,55.96
26.762667,55.93
26.768,55.85
26.773333,55.82
26.778667,55.75
26.784,55.92
26.789333,55.93
26.794667,56.05
26.8,56.13
26.805333,56.23
26.810667,56.33
26.816,56.58
26.821333,56.99
26.826667,57.23
26.832,57.44
26.837333,57.6
26.842667,57.71
26.848,57.86
26.853333,57.92
26.858667,57.94
26.864,57.93
26.869333,57.91
26.874667,57.84
26.88,57.76
26.885333,57.67
26.890667,57.56
26.896,57.48
26.901333,57.43
26.906667,57.37
26.912,57.33
26.917333,57.4
26.922667,57.36
26.928,57.39
26.933333,57.35
26.938667,57.34
26.944,57.37
26.949333,57.4
26.954667,57.46
26.96,57.55
26.965333,57.65
26.970667,57.72
26.976,57.77
26.981333,58.01
26.986667,58.26
26.992,58.58
26.997333,58.67
27.002667,58.89
27.008,59
27.013333,58.99
27.018667,59.16
27.024,59.22
27.029333,59.26
27.034667,59.4
27.04,59.4
27.045333,59.33
27.050667,59.24
27.056,59.13
27.061333,59.01
27.066667,58.9
27.072,58.76
27.077333,58.66
27.082667,58.53
27.088,58.39
27.093333,58.26
27.098667,58.19
27.104,58.1
27.109333,57.95
27.114667,59.34
27.12,60.51
27.125333,60.49
27.130667,60.41
27.136,60.3
27.141333,60.22
27.146667,60.16
27.152,60.06
27.157333,59.92
27.162667,59.8
27.168,59.68
27.173333,59.54
27.178667,59.41
27.184,59.29
27.189333,59.15
27.194667,59.04
27.2,58.93
27.205333,58.81
27.210667,58.7
27.216,58.63
27.221333,58.52
27.226667,58.42
27.232,58.31
27.237333,58.21
27.242667,58.11
27.248,58
27.253333,57.92
27.258667,57.81
27.264,57.72
27.269333,57.59
27.274667,57.44
27.28,57.36
27.285333,57.25
27.290667,57.15
27.296,57.07
27.301333,56.96
27.306667,56.85
27.312,56.81
27.317333,56.73
27.322667,56.63
27.328,56.52
27.333333,56.43
27.338667,56.34
27.344,56.26
27.349333,56.17
27.354667,56.17
27.36,56.07
27.365333,56.01
27.370667,55.9
27.376,55.87
27.381333,56.08
27.386667,56.39
27.392,56.57
27.397333,56.73
27.402667,56.66
27.408,56.6
27.413333,56.55
27.418667,56.5
27.424,56.47
27.429333,56.42
27.434667,56.4
27.44,56.47
27.445333,56.53
27.450667,56.71
27.456,56.81
27.461333,56.9
27.466667,56.93
27.472,56.97
27.477333,57.08
27.482667,57.03
27.488,56.94
27.493333,56.83
27.498667,56.79
27.504,56.77
27.509333,56.79
27.514667,56.85
27.52,56.82
27.525333,56.82
27.530667,56.72
27.536,56.65
27.541333,56.63
27.546667,56.58
27.552,56.49
27.557333,56.44
27.562667,56.32
27.568,56.24
27.573333,56.22
27.578667,56.16
27.584,56.09
27.589333,56.08
27.594667,56.05
27.6,55.99
27.605333,55.93
27.610667,55.89
27.616,55.87
27.621333,55.81
27.626667,55.72
27.632,55.62
27.637333,55.55
27.642667,55.54
27.648,55.45
27.653333,55.37
27.658667,55.29
27.664,55.23
27.669333,55.14
27.674667,55.11
27.68,55.03
27.685333,54.97
27.690667,54.9
27.696,54.86
27.701333,54.75
27.706667,54.62
27.712,54.52
27.717333,54.43
27.722667,54.35
27.728,54.27
27.733333,54.16
27.738667,54.07
27.744,54.05
27.749333,53.96
27.754667,53.9
27.76,53.83
27.765333,53.73
27.770667,53.65
27.776,53.58
27.781333,53.47
27.786667,53.47
27.792,53.54
27.797333,53.54
27.802667,53.55
27.808,53.61
27.813333,53.69
27.818667,53.7
27.824,53.77
27.829333,53.8
27.834667,53.78
27.84,53.78
27.845333,53.74
27.850667,53.73
27.856,53.75
27.861333,53.75
27.866667,53.74
27.872,53.77
27.877333,53.76
27.882667,53.67
27.888,53.64
27.893333,53.56
27.898667,53.46
27.904,53.43
27.909333,53.37
27.914667,53.31
27.92,53.33
27.925333,53.27
27.930667,53.2
27.936,53.14
27.941333,53.08
27.946667,52.98
27.952,52.93
27.957333,52.86
27.962667,52.85
27.968,52.92
27.973333,52.82
27.978667,52.73
27.984,52.74
27.989333,52.69
27.994667,52.69
28,52.64
28.005333,52.59
28.010667,52.59
28.016,52.53
28.021333,52.49
28.026667,52.46
28.032,52.43
28.037333,52.4
28.042667,52.44
28.048,52.42
28.053333,52.4
28.058667,52.4
28.064,52.39
28.069333,52.41
28.074667,52.51
28.08,52.61
28.085333,52.68
28.090667,52.91
28.096,52.95
28.101333,52.98
28.106667,55.6
28.112,55.75
28.117333,55.68
28.122667,55.69
28.128,55.65
28.133333,55.57
28.138667,55.5
28.144,55.36
28.149333,55.3
28.154667,55.22
28.16,55.11
28.165333,55.01
28.170667,54.92
28.176,54.85
28.181333,54.81
28.186667,54.7
28.192,54.65
28.197333,54.56
28.202667,54.5
28.208,54.5
28.213333,54.4
28.218667,54.37
28.224,54.35
28.229333,54.38
28.234667,54.35
28.24,54.44
28.245333,54.42
28.250667,54.42
28.256,54.55
28.261333,54.55
28.266667,54.52
28.272,54.52
28.277333,54.47
28.282667,54.42
28.288,54.46
28.293333,54.39
28.298667,54.33
28.304,54.34
28.309333,54.31
28.314667,54.25
28.32,54.17
28.325333,54.19
28.330667,54.11
28.336,54.09
28.341333,54.41
28.346667,54.47
28.352,54.5
28.357333,54.53
28.362667,54.63
28.368,54.75
28.373333,54.74
28.378667,54.72
28.384,54.76
28.389333,54.77
28.394667,54.72
28.4,54.68
28.405333,54.63
28.410667,54.57
28.416,54.55
28.421333,54.6
28.426667,54.59
28.432,54.53
28.437333,54.51
28.442667,54.52
28.448,54.47
28.453333,54.4
28.458667,54.37
28.464,54.43
28.469333,54.47
28.474667,54.44
28.48,54.46
28.485333,54.49
28.490667,54.41
28.496,54.33
28.501333,54.32
28.506667,54.34
28.512,54.28
28.517333,54.24
28.522667,54.18
28.528,54.09
28.533333,54.03
28.538667,53.98
28.544,53.97
28.549333,53.93
28.554667,53.91
28.56,53.86
28.565333,53.84
28.570667,53.87
28.576,53.97
28.581333,54
28.586667,54.04
28.592,54.09
28.597333,54.16
28.602667,54.29
28.608,54.33
28.613333,54.43
28.618667,54.53
28.624,54.51
28.629333,54.45
28.634667,54.44
28.64,54.45
28.645333,54.47
28.650667,54.75
28.656,54.86
28.661333,54.88
28.666667,54.83
28.672,54.75
28.677333,54.68
28.682667,54.6
28.688,54.54
28.693333,54.54
28.698667,54.6
28.704,54.62
28.709333,54.56
28.714667,54.48
28.72,54.48
28.725333,54.43
28.730667,54.38
28.736,54.42
28.741333,54.44
28.746667,54.51
28.752,54.45
28.757333,54.45
28.762667,54.53
28.768,54.65
28.773333,54.64
28.778667,54.77
28.784,54.77
28.789333,54.71
28.794667,54.69
28.8,54.66
28.805333,54.57
28.810667,54.52
28.816,54.54
28.821333,54.53
28.826667,54.48
28.832,54.42
28.837333,54.44
28.842667,54.43
28.848,54.41
28.853333,54.39
28.858667,54.4
28.864,54.37
28.869333,54.4
28.874667,54.51
28.88,54.42
28.885333,54.41
28.890667,54.85
28.896,54.84
28.901333,54.83
28.906667,54.8
28.912,54.73
28.917333,54.7
28.922667,54.66
28.928,54.61
28.933333,54.51
28.938667,54.48
28.944,54.42
28.949333,54.48
28.954667,54.47
28.96,54.52
28.965333,54.45
28.970667,54.54
28.976,54.57
28.981333,54.72
28.986667,54.84
28.992,54.88
28.997333,54.96
29.002667,54.97
29.008,55.1
29.013333,55.11
29.018667,55.26
29.024,55.45
29.029333,55.71
29.034667,55.88
29.04,55.9
29.045333,56.1
29.050667,56.17
29.056,56.22
29.061333,56.24
29.066667,56.31
29.072,56.31
29.077333,56.36
29.082667,56.39
29.088,56.46
29.093333,56.45
29.098667,56.48
29.104,56.61
29.109333,56.74
29.114667,58.86
29.12,59.31
29.125333,59.25
29.130667,59.28
29.136,59.44
29.141333,59.43
29.146667,59.45
29.152,59.42
29.157333,59.39
29.162667,59.32
29.168,59.29
29.173333,59.29
29.178667,59.25
29.184,59.17
29.189333,59.11
29.194667,59.1
29.2,59.02
29.205333,58.98
29.210667,58.93
29.216,58.87
29.221333,58.82
29.226667,58.69
29.232,58.61
29.237333,58.52
29.242667,58.46
29.248,58.38
29.253333,58.3
29.258667,58.2
29.264,58.1
29.269333,57.99
29.274667,57.89
29.28,57.78
29.285333,57.71
29.290667,57.61
29.296,57.49
29.301333,57.37
29.306667,57.29
29.312,57.2
29.317333,57.12
29.322667,57.06
29.328,56.98
29.333333,56.88
29.338667,56.83
29.344,56.78
29.349333,56.81
29.354667,56.79
29.36,56.73
29.365333,56.75
29.370667,56.77
29.376,56.79
29.381333,56.77
29.386667,56.81
29.392,56.79
29.397333,56.76
29.402667,56.67
29.408,56.65
29.413333,56.81
29.418667,56.94
29.424,56.95
29.429333,57.08
29.434667,57.11
29.44,57.11
29.445333,57.1
29.450667,57.04
29.456,57.03
29.461333,56.98
29.466667,56.92
29.472,56.91
29.477333,56.82
29.482667,56.69
29.488,56.62
29.493333,56.53
29.498667,56.44
29.504,56.35
29.509333,56.33
29.514667,56.27
29.52,56.22
29.525333,56.17
29.530667,56.08
29.536,56.04
29.541333,55.95
29.546667,55.93
29.552,55.89
29.557333,55.88
29.562667,55.86
29.568,55.87
29.573333,55.85
29.578667,55.83
29.584,55.81
29.589333,55.78
29.594667,55.72
29.6,55.93
29.605333,55.99
29.610667,55.95
29.616,55.87
29.621333,55.84
29.626667,55.76
29.632,55.73
29.637333,55.62
29.642667,55.61
29.648,55.54
29.653333,55.5
29.658667,55.46
29.664,55.56
29.669333,55.51
29.674667,55.56
29.68,55.54
29.685333,55.44
29.690667,55.37
29.696,55.28
29.701333,55.2
29.706667,55.14
29.712,55.09
29.717333,55.05
29.722667,54.96
29.728,54.87
29.733333,54.84
29.738667,54.77
29.744,54.66
29.749333,54.64
29.754667,54.62
29.76,54.58
29.765333,54.6
29.770667,54.63
29.776,54.63
29.781333,54.57
29.786667,54.53
29.792,54.58
29.797333,54.55
29.802667,54.56
29.808,54.52
29.813333,54.51
29.818667,54.47
29.824,54.38
29.829333,54.5
29.834667,54.75
29.84,54.77
29.845333,54.77
29.850667,54.73
29.856,54.71
29.861333,54.69
29.866667,54.65
29.872,54.59
29.877333,54.54
29.882667,54.53
29.888,54.56
29.893333,54.61
29.898667,54.69
29.904,54.74
29.909333,54.78
29.914667,54.85
29.92,54.88
29.925333,54.88
29.930667,54.9
29.936,54.9
29.941333,54.85
29.946667,54.85
29.952,54.86
29.957333,55.01
29.962667,55.07
29.968,55.17
29.973333,55.3
29.978667,55.45
29.984,55.63
29.989333,55.76
29.994667,55.76
30,55.93
30.005333,56.02
30.010667,55.94
30.016,55.92
30.021333,55.91
30.026667,55.97
30.032,55.94
30.037333,55.94
30.042667,55.89
30.048,55.85
30.053333,55.77
30.058667,55.75
30.064,55.74
30.069333,55.68
30.074667,55.69
30.08,55.85
30.085333,55.83
30.090667,55.89
30.096,55.9
30.101333,55.87
30.106667,56.05
30.112,56.13
30.117333,56.17
30.122667,56.13
30.128,56.13
30.133333,56.04
30.138667,55.97
30.144,55.97
30.149333,55.89
30.154667,55.86
30.16,55.81
30.165333,55.74
30.170667,55.7
30.176,55.67
30.181333,55.64
30.186667,55.77
30.192,55.71
30.197333,55.74
30.202667,55.76
30.208,55.76
30.213333,55.71
30.218667,55.7
30.224,55.68
30.229333,55.6
30.234667,55.62
30.24,55.6
30.245333,55.58
30.250667,55.56
30.256,55.51
30.261333,55.45
30.266667,55.33
30.272,55.25
30.277333,55.22
30.282667,55.16
30.288,55.09
30.293333,55.01
30.298667,54.93
30.304,54.84
30.309333,54.81
30.314667,54.91
30.32,54.84
30.325333,54.77
30.330667,54.69
30.336,54.63
30.341333,54.56
30.346667,54.53
30.352,54.47
30.357333,54.42
30.362667,54.37
30.368,54.32
30.373333,54.23
30.378667,54.16
30.384,54.17
30.389333,54.11
30.394667,54.24
30.4,54.37
30.405333,54.5
30.410667,54.67
30.416,54.7
30.421333,54.78
30.426667,54.89
30.432,54.93
30.437333,54.98
30.442667,55.01
30.448,55.05
30.453333,55.05
30.458667,55.12
30.464,55.15
30.469333,55.27
30.474667,55.21
30.48,55.29
30.485333,55.34
30.490667,55.38
30.496,55.44
30.501333,55.48
30.506667,55.46
30.512,55.47
30.517333,55.52
30.522667,55.52
30.528,55.47
30.533333,55.47
30.538667,55.52
30.544,55.53
30.549333,55.5
30.554667,55.49
30.56,55.5
30.565333,55.46
30.570667,55.39
30.576,55.34
30.581333,55.3
30.586667,55.36
30.592,55.33
30.597333,55.55
30.602667,55.52
30.608,55.45
30.613333,55.41
30.618667,55.34
30.624,55.28
30.629333,55.27
30.634667,55.23
30.64,55.28
30.645333,55.25
30.650667,55.29
30.656,55.28
30.661333,55.28
30.666667,55.26
30.672,55.22
30.677333,55.17
30.682667,55.1
30.688,55.04
30.693333,55.13
30.698667,55.08
30.704,55.01
30.709333,55.05
30.714667,55.08
30.72,55.08
30.725333,55.18
30.730667,55.12
30.736,55.17
30.741333,55.17
30.746667,55.16
30.752,55.18
30.757333,55.24
30.762667,55.23
30.768,55.22
30.773333,55.23
30.778667,55.26
30.784,55.25
30.789333,55.29
30.794667,55.33
30.8,55.25
30.805333,55.2
30.810667,55.19
30.816,55.21
30.821333,55.16
30.826667,55.16
30.832,55.24
30.837333,55.2
30.842667,55.19
30.848,55.12
30.853333,55.07
30.858667,55.02
30.864,54.99
30.869333,54.95
30.874667,54.93
30.88,54.89
30.885333,54.9
30.890667,54.94
30.896,54.97
30.901333,54.96
30.906667,54.98
30.912,54.94
30.917333,54.97
30.922667,54.99
30.928,54.95
30.933333,54.91
30.938667,54.92
30.944,54.9
30.949333,54.92
30.954667,54.91
30.96,54.86
30.965333,54.9
30.970667,54.88
30.976,54.85
30.981333,54.83
30.986667,54.85
30.992,54.91
30.997333,54.9
31.002667,54.87
31.008,54.88
31.013333,54.9
31.018667,54.95
31.024,54.95
31.029333,54.96
31.034667,54.92
31.04,54.84
31.045333,54.87
31.050667,54.93
31.056,55.03
31.061333,55.12
31.066667,55.24
31.072,55.4
31.077333,55.7
31.082667,55.78
31.088,56.01
31.093333,56.26
31.098667,56.37
31.104,56.58
31.109333,56.77
31.114667,56.88
31.12,57.06
31.125333,57.14
31.130667,57.11
31.136,57.09
31.141333,57.11
31.146667,57.07
31.152,57.02
31.157333,57
31.162667,57.06
31.168,57.07
31.173333,57.18
31.178667,57.11
31.184,57.1
31.189333,57.01
31.194667,56.94
31.2,56.87
31.205333,56.82
31.210667,56.81
31.216,56.82
31.221333,56.78
31.226667,56.74
31.232,56.78
31.237333,56.75
31.242667,56.69
31.248,56.63
31.253333,56.61
31.258667,56.56
31.264,56.54
31.269333,56.48
31.274667,56.45
31.28,56.48
31.285333,56.4
31.290667,56.38
31.296,56.42
31.301333,56.36
31.306667,56.33
31.312,56.29
