Time file:	R:\UCL_SSID\SSID_DATABASE\SSID_London\OFF_CamdenTown1_FULL_190502\OFF_CamdenTown1_BIN_190502\CamdenTown1_HDF\12-55_2.hdf
Mark:		12-55_2 (0.00 - 33.71 s)
Filter:	
Analysis:	Speech Interference Level vs. Time (SIL-4; Fast)
Statistic:	Max[12-55_2.{Left,Right}]
Kind:	SpeechInterferenceLevel
Abscissa 1:	Time,s
Channel 1:	Max {Pa},Speech Interference Level,dB(SPL),N/A=n/a ; Avg,arith=60.53; SIL5=67.05; SIL10=65.95; SIL50=58.66; SIL90=54.30; SIL95=53.97 dB(SPL); Min=52.98 dB(SPL) @2.55 s; Max=69.21 dB(SPL) @33.5 s
Comment:
<User Comment>
CT112
<>
SQobold SD recording
S/N 33020299 Name U London FW 1.5/3
Ch1: 104 dB(SPL) ICP
Ch2: 104 dB(SPL) ICP
User Information:
SSID Field Binaural Basic/Comments = Music, sirens, people talking, cars passing, 
SSID Field Binaural Basic/Delete/scratch? = False
SSID Field Binaural Basic/End Buffer = 
SSID Field Binaural Basic/GroupID = CT112
SSID Field Binaural Basic/No edit needed = True
SSID Field Binaural Basic/SessionID = CamdenTown1
SSID Field Binaural Basic/Start Buffer = 


0,54.52
0.00533333,54.49
0.0106667,54.5
0.016,54.61
0.0213333,54.61
0.0266667,54.54
0.032,54.53
0.0373333,54.52
0.0426667,54.56
0.048,54.56
0.0533333,54.59
0.0586667,54.56
0.064,54.5
0.0693333,54.44
0.0746667,54.48
0.08,54.47
0.0853333,54.5
0.0906667,54.48
0.096,54.47
0.101333,54.5
0.106667,54.68
0.112,54.77
0.117333,54.76
0.122667,54.74
0.128,54.73
0.133333,54.7
0.138667,54.63
0.144,54.65
0.149333,54.69
0.154667,54.76
0.16,54.7
0.165333,54.6
0.170667,54.74
0.176,54.76
0.181333,54.8
0.186667,54.79
0.192,54.73
0.197333,54.74
0.202667,54.72
0.208,54.79
0.213333,54.86
0.218667,54.94
0.224,54.9
0.229333,54.86
0.234667,54.92
0.24,54.84
0.245333,54.85
0.250667,54.81
0.256,54.78
0.261333,54.74
0.266667,54.75
0.272,54.72
0.277333,54.68
0.282667,54.65
0.288,54.68
0.293333,54.7
0.298667,54.67
0.304,54.65
0.309333,54.62
0.314667,54.67
0.32,54.7
0.325333,54.85
0.330667,55.03
0.336,54.98
0.341333,54.95
0.346667,54.99
0.352,54.95
0.357333,54.92
0.362667,54.93
0.368,54.92
0.373333,54.91
0.378667,54.94
0.384,54.93
0.389333,54.9
0.394667,54.84
0.4,54.83
0.405333,54.89
0.410667,54.85
0.416,54.82
0.421333,54.79
0.426667,54.7
0.432,54.63
0.437333,54.61
0.442667,54.65
0.448,54.61
0.453333,54.61
0.458667,54.64
0.464,54.63
0.469333,54.56
0.474667,54.51
0.48,54.43
0.485333,54.38
0.490667,54.34
0.496,54.31
0.501333,54.34
0.506667,54.39
0.512,54.38
0.517333,54.35
0.522667,54.37
0.528,54.4
0.533333,54.43
0.538667,54.44
0.544,54.41
0.549333,54.45
0.554667,54.74
0.56,54.8
0.565333,54.84
0.570667,54.9
0.576,54.9
0.581333,54.91
0.586667,54.96
0.592,54.98
0.597333,55.01
0.602667,55.16
0.608,55.14
0.613333,55.19
0.618667,55.23
0.624,55.16
0.629333,55.13
0.634667,55.08
0.64,55
0.645333,54.92
0.650667,54.86
0.656,54.89
0.661333,54.93
0.666667,54.86
0.672,54.83
0.677333,54.87
0.682667,54.86
0.688,54.87
0.693333,54.84
0.698667,56.02
0.704,56
0.709333,55.97
0.714667,55.97
0.72,55.93
0.725333,55.91
0.730667,55.93
0.736,55.89
0.741333,55.9
0.746667,55.85
0.752,55.79
0.757333,55.71
0.762667,55.69
0.768,55.6
0.773333,55.52
0.778667,55.47
0.784,55.39
0.789333,55.32
0.794667,55.25
0.8,55.35
0.805333,55.33
0.810667,55.4
0.816,55.3
0.821333,55.2
0.826667,55.15
0.832,55.18
0.837333,55.1
0.842667,55.2
0.848,55.27
0.853333,55.38
0.858667,55.41
0.864,55.36
0.869333,55.35
0.874667,55.42
0.88,55.35
0.885333,55.27
0.890667,55.21
0.896,55.2
0.901333,55.14
0.906667,55.03
0.912,54.96
0.917333,54.95
0.922667,54.93
0.928,54.84
0.933333,54.8
0.938667,54.76
0.944,54.81
0.949333,54.91
0.954667,54.89
0.96,54.89
0.965333,54.93
0.970667,54.92
0.976,54.89
0.981333,54.86
0.986667,54.8
0.992,54.77
0.997333,54.85
1.002667,54.87
1.008,54.84
1.013333,54.83
1.018667,54.86
1.024,55
1.029333,54.99
1.034667,54.99
1.04,55.03
1.045333,54.93
1.050667,54.91
1.056,54.91
1.061333,54.81
1.066667,54.79
1.072,54.71
1.077333,54.73
1.082667,54.71
1.088,54.68
1.093333,54.64
1.098667,54.6
1.104,54.63
1.109333,54.66
1.114667,54.71
1.12,54.66
1.125333,54.67
1.130667,54.66
1.136,54.63
1.141333,54.72
1.146667,54.74
1.152,54.7
1.157333,54.68
1.162667,54.64
1.168,54.66
1.173333,54.7
1.178667,54.66
1.184,54.69
1.189333,54.71
1.194667,54.71
1.2,54.7
1.205333,54.69
1.210667,54.67
1.216,54.66
1.221333,54.62
1.226667,54.55
1.232,54.52
1.237333,54.46
1.242667,54.4
1.248,54.4
1.253333,54.42
1.258667,54.37
1.264,54.37
1.269333,54.4
1.274667,54.33
1.28,54.32
1.285333,54.3
1.290667,54.28
1.296,54.32
1.301333,54.29
1.306667,54.27
1.312,54.22
1.317333,54.27
1.322667,54.3
1.328,54.28
1.333333,54.25
1.338667,54.26
1.344,54.28
1.349333,54.25
1.354667,54.24
1.36,54.26
1.365333,54.18
1.370667,54.09
1.376,54.08
1.381333,54.11
1.386667,54.08
1.392,54.13
1.397333,54.14
1.402667,54.34
1.408,54.3
1.413333,54.38
1.418667,54.36
1.424,54.45
1.429333,54.44
1.434667,54.43
1.44,54.44
1.445333,54.51
1.450667,54.49
1.456,54.53
1.461333,54.59
1.466667,54.61
1.472,54.58
1.477333,54.57
1.482667,54.51
1.488,54.45
1.493333,54.45
1.498667,54.44
1.504,54.52
1.509333,55.16
1.514667,55.26
1.52,55.24
1.525333,55.33
1.530667,55.41
1.536,55.43
1.541333,55.4
1.546667,55.37
1.552,55.48
1.557333,55.56
1.562667,55.55
1.568,55.6
1.573333,55.66
1.578667,55.87
1.584,55.9
1.589333,55.89
1.594667,55.81
1.6,55.86
1.605333,55.86
1.610667,55.85
1.616,55.87
1.621333,55.83
1.626667,55.78
1.632,55.72
1.637333,55.81
1.642667,55.85
1.648,55.82
1.653333,55.81
1.658667,55.87
1.664,55.91
1.669333,56.19
1.674667,56.19
1.68,56.18
1.685333,56.17
1.690667,56.21
1.696,56.23
1.701333,56.2
1.706667,56.3
1.712,56.3
1.717333,56.4
1.722667,56.36
1.728,56.43
1.733333,56.46
1.738667,56.48
1.744,56.45
1.749333,56.51
1.754667,56.68
1.76,56.8
1.765333,56.84
1.770667,56.97
1.776,56.95
1.781333,57.04
1.786667,57.04
1.792,56.99
1.797333,56.91
1.802667,56.87
1.808,56.83
1.813333,56.8
1.818667,56.75
1.824,56.7
1.829333,56.76
1.834667,56.66
1.84,56.6
1.845333,56.52
1.850667,56.43
1.856,56.33
1.861333,56.29
1.866667,56.23
1.872,56.4
1.877333,56.34
1.882667,56.24
1.888,56.16
1.893333,56.1
1.898667,56.04
1.904,55.93
1.909333,55.86
1.914667,55.81
1.92,55.78
1.925333,55.83
1.930667,55.86
1.936,55.85
1.941333,55.85
1.946667,55.82
1.952,55.76
1.957333,55.67
1.962667,55.6
1.968,55.54
1.973333,55.48
1.978667,55.46
1.984,55.44
1.989333,55.45
1.994667,55.46
2,55.42
2.005333,55.38
2.010667,55.32
2.016,55.27
2.021333,55.2
2.026667,55.15
2.032,55.08
2.037333,55.05
2.042667,54.95
2.048,54.95
2.053333,54.88
2.058667,54.78
2.064,54.67
2.069333,54.65
2.074667,54.54
2.08,54.48
2.085333,54.39
2.090667,54.31
2.096,54.26
2.101333,54.2
2.106667,54.19
2.112,54.1
2.117333,54.1
2.122667,54.01
2.128,54.04
2.133333,54.03
2.138667,54
2.144,53.96
2.149333,53.89
2.154667,53.85
2.16,53.82
2.165333,53.76
2.170667,53.69
2.176,53.63
2.181333,53.57
2.186667,53.56
2.192,53.54
2.197333,53.63
2.202667,53.69
2.208,53.71
2.213333,53.67
2.218667,53.63
2.224,53.53
2.229333,53.51
2.234667,53.57
2.24,53.52
2.245333,53.44
2.250667,53.38
2.256,53.39
2.261333,53.4
2.266667,53.35
2.272,53.41
2.277333,53.44
2.282667,53.44
2.288,53.34
2.293333,53.3
2.298667,53.26
2.304,53.24
2.309333,53.28
2.314667,53.29
2.32,53.29
2.325333,53.2
2.330667,53.24
2.336,53.14
2.341333,53.17
2.346667,53.18
2.352,53.21
2.357333,53.2
2.362667,53.16
2.368,53.32
2.373333,53.33
2.378667,53.36
2.384,53.28
2.389333,53.3
2.394667,53.37
2.4,53.43
2.405333,53.43
2.410667,53.42
2.416,53.42
2.421333,53.42
2.426667,53.4
2.432,53.38
2.437333,53.37
2.442667,53.34
2.448,53.39
2.453333,53.33
2.458667,53.28
2.464,53.22
2.469333,53.24
2.474667,53.21
2.48,53.32
2.485333,53.26
2.490667,53.18
2.496,53.15
2.501333,53.19
2.506667,53.2
2.512,53.16
2.517333,53.14
2.522667,53.12
2.528,53.07
2.533333,53.11
2.538667,53.15
2.544,53.1
2.549333,53.05
2.554667,52.98
2.56,52.99
2.565333,53.05
2.570667,53.02
2.576,53.06
2.581333,53.03
2.586667,53.13
2.592,53.29
2.597333,53.27
2.602667,53.24
2.608,53.17
2.613333,53.16
2.618667,53.15
2.624,53.17
2.629333,53.17
2.634667,53.17
2.64,53.22
2.645333,53.59
2.650667,53.99
2.656,54.13
2.661333,54.13
2.666667,54.1
2.672,54.1
2.677333,54.07
2.682667,54.18
2.688,54.24
2.693333,54.32
2.698667,54.44
2.704,54.5
2.709333,54.47
2.714667,54.43
2.72,54.56
2.725333,54.66
2.730667,54.67
2.736,54.58
2.741333,54.53
2.746667,54.54
2.752,54.54
2.757333,54.45
2.762667,54.48
2.768,54.44
2.773333,54.42
2.778667,54.4
2.784,54.33
2.789333,54.32
2.794667,54.36
2.8,54.4
2.805333,54.47
2.810667,54.46
2.816,54.39
2.821333,54.34
2.826667,54.29
2.832,54.29
2.837333,54.26
2.842667,54.26
2.848,54.22
2.853333,54.18
2.858667,54.11
2.864,54.06
2.869333,54.01
2.874667,54.07
2.88,54.05
2.885333,53.99
2.890667,54.03
2.896,54.1
2.901333,54.02
2.906667,53.96
2.912,53.92
2.917333,53.89
2.922667,53.87
2.928,53.84
2.933333,53.79
2.938667,53.73
2.944,53.69
2.949333,53.66
2.954667,53.58
2.96,53.52
2.965333,53.46
2.970667,53.47
2.976,53.46
2.981333,53.45
2.986667,53.45
2.992,53.38
2.997333,53.31
3.002667,53.31
3.008,53.36
3.013333,53.35
3.018667,53.35
3.024,53.29
3.029333,53.22
3.034667,53.17
3.04,53.17
3.045333,53.18
3.050667,53.16
3.056,53.18
3.061333,53.17
3.066667,53.24
3.072,53.34
3.077333,53.36
3.082667,53.35
3.088,53.32
3.093333,53.26
3.098667,53.39
3.104,53.34
3.109333,53.36
3.114667,53.33
3.12,53.38
3.125333,53.4
3.130667,53.42
3.136,53.38
3.141333,53.36
3.146667,53.47
3.152,53.52
3.157333,53.5
3.162667,53.45
3.168,53.49
3.173333,53.45
3.178667,53.39
3.184,53.35
3.189333,53.29
3.194667,53.25
3.2,53.29
3.205333,53.26
3.210667,53.28
3.216,53.27
3.221333,53.31
3.226667,53.3
3.232,53.25
3.237333,53.27
3.242667,53.25
3.248,53.31
3.253333,53.28
3.258667,53.19
3.264,53.18
3.269333,53.15
3.274667,53.15
3.28,53.16
3.285333,53.35
3.290667,53.54
3.296,53.75
3.301333,53.77
3.306667,53.75
3.312,53.79
3.317333,53.8
3.322667,53.82
3.328,53.76
3.333333,53.71
3.338667,53.69
3.344,53.77
3.349333,53.74
3.354667,53.83
3.36,53.83
3.365333,53.89
3.370667,53.93
3.376,53.91
3.381333,53.85
3.386667,53.78
3.392,53.73
3.397333,53.7
3.402667,53.65
3.408,53.7
3.413333,53.67
3.418667,53.63
3.424,53.61
3.429333,53.63
3.434667,53.65
3.44,53.66
3.445333,53.7
3.450667,53.63
3.456,53.71
3.461333,53.79
3.466667,53.77
3.472,53.73
3.477333,53.76
3.482667,53.73
3.488,53.72
3.493333,53.72
3.498667,53.76
3.504,53.72
3.509333,53.91
3.514667,53.83
3.52,53.83
3.525333,53.81
3.530667,53.77
3.536,53.72
3.541333,53.67
3.546667,53.78
3.552,53.78
3.557333,53.82
3.562667,53.83
3.568,53.92
3.573333,53.94
3.578667,53.9
3.584,53.97
3.589333,53.95
3.594667,53.96
3.6,54.07
3.605333,54.09
3.610667,54.07
3.616,54.14
3.621333,54.24
3.626667,54.23
3.632,54.35
3.637333,54.29
3.642667,54.3
3.648,54.31
3.653333,54.34
3.658667,54.31
3.664,54.33
3.669333,54.44
3.674667,54.51
3.68,54.48
3.685333,54.57
3.690667,54.56
3.696,54.59
3.701333,54.52
3.706667,54.54
3.712,54.51
3.717333,54.61
3.722667,54.67
3.728,54.85
3.733333,54.75
3.738667,54.77
3.744,54.73
3.749333,54.71
3.754667,54.7
3.76,54.74
3.765333,54.74
3.770667,54.79
3.776,54.79
3.781333,54.84
3.786667,54.83
3.792,54.86
3.797333,54.8
3.802667,54.79
3.808,54.76
3.813333,54.71
3.818667,54.71
3.824,54.67
3.829333,54.62
3.834667,54.59
3.84,54.64
3.845333,54.67
3.850667,54.59
3.856,54.49
3.861333,54.52
3.866667,54.46
3.872,54.44
3.877333,54.47
3.882667,54.41
3.888,54.41
3.893333,54.42
3.898667,54.39
3.904,54.43
3.909333,54.42
3.914667,54.45
3.92,54.43
3.925333,54.43
3.930667,54.42
3.936,54.44
3.941333,54.46
3.946667,54.4
3.952,54.48
3.957333,54.4
3.962667,54.53
3.968,54.48
3.973333,54.41
3.978667,54.44
3.984,54.44
3.989333,54.39
3.994667,54.38
4,54.33
4.005333,54.37
4.010667,54.43
4.016,54.49
4.021333,54.46
4.026667,54.44
4.032,54.44
4.037333,54.48
4.042667,54.51
4.048,54.51
4.053333,54.58
4.058667,54.65
4.064,54.63
4.069333,54.66
4.074667,54.69
4.08,54.81
4.085333,54.81
4.090667,54.8
4.096,54.88
4.101333,55
4.106667,54.98
4.112,54.93
4.117333,54.88
4.122667,54.86
4.128,54.85
4.133333,54.86
4.138667,54.91
4.144,54.94
4.149333,54.94
4.154667,54.99
4.16,54.97
4.165333,54.9
4.170667,54.82
4.176,54.75
4.181333,54.75
4.186667,54.73
4.192,54.71
4.197333,54.66
4.202667,54.61
4.208,54.6
4.213333,54.58
4.218667,54.53
4.224,54.58
4.229333,54.51
4.234667,54.63
4.24,54.59
4.245333,54.51
4.250667,54.52
4.256,54.55
4.261333,54.56
4.266667,54.49
4.272,54.46
4.277333,54.48
4.282667,54.51
4.288,54.52
4.293333,54.5
4.298667,54.53
4.304,54.51
4.309333,54.58
4.314667,54.6
4.32,54.54
4.325333,54.57
4.330667,54.51
4.336,54.48
4.341333,54.39
4.346667,54.34
4.352,54.34
4.357333,54.42
4.362667,54.38
4.368,54.34
4.373333,54.35
4.378667,54.32
4.384,54.4
4.389333,54.39
4.394667,54.46
4.4,54.54
4.405333,54.54
4.410667,54.55
4.416,54.58
4.421333,54.54
4.426667,54.52
4.432,54.47
4.437333,54.52
4.442667,54.58
4.448,54.57
4.453333,54.6
4.458667,54.53
4.464,54.49
4.469333,54.43
4.474667,54.4
4.48,54.43
4.485333,54.37
4.490667,54.35
4.496,54.37
4.501333,54.41
4.506667,54.41
4.512,54.41
4.517333,54.45
4.522667,54.4
4.528,54.4
4.533333,54.34
4.538667,54.28
4.544,54.47
4.549333,54.46
4.554667,54.45
4.56,54.43
4.565333,54.41
4.570667,54.35
4.576,54.29
4.581333,54.25
4.586667,54.25
4.592,54.21
4.597333,54.17
4.602667,54.15
4.608,54.22
4.613333,54.26
4.618667,54.23
4.624,54.37
4.629333,54.33
4.634667,54.45
4.64,54.44
4.645333,54.41
4.650667,54.35
4.656,54.32
4.661333,54.27
4.666667,54.24
4.672,54.16
4.677333,54.13
4.682667,54.42
4.688,54.56
4.693333,54.57
4.698667,54.54
4.704,54.53
4.709333,54.54
4.714667,54.47
4.72,54.48
4.725333,54.49
4.730667,54.44
4.736,54.43
4.741333,54.35
4.746667,54.32
4.752,54.3
4.757333,54.26
4.762667,54.24
4.768,54.18
4.773333,54.15
4.778667,54.07
4.784,54.03
4.789333,54
4.794667,53.91
4.8,53.88
4.805333,53.8
4.810667,53.73
4.816,53.72
4.821333,53.77
4.826667,53.81
4.832,53.8
4.837333,53.8
4.842667,53.8
4.848,53.75
4.853333,53.74
4.858667,53.66
4.864,53.68
4.869333,53.71
4.874667,53.76
4.88,53.7
4.885333,53.64
4.890667,53.61
4.896,53.64
4.901333,53.66
4.906667,53.68
4.912,53.74
4.917333,53.84
4.922667,53.84
4.928,53.86
4.933333,53.89
4.938667,53.86
4.944,53.89
4.949333,53.91
4.954667,53.84
4.96,53.85
4.965333,53.83
4.970667,53.87
4.976,54.05
4.981333,54.23
4.986667,54.36
4.992,54.41
4.997333,54.36
5.002667,54.39
5.008,54.38
5.013333,54.41
5.018667,54.51
5.024,54.59
5.029333,54.67
5.034667,54.72
5.04,54.77
5.045333,54.88
5.050667,54.84
5.056,54.82
5.061333,54.74
5.066667,54.74
5.072,54.76
5.077333,54.8
5.082667,55.21
5.088,55.33
5.093333,55.5
5.098667,55.59
5.104,55.74
5.109333,55.96
5.114667,55.91
5.12,55.91
5.125333,55.87
5.130667,56.01
5.136,55.98
5.141333,55.92
5.146667,55.9
5.152,55.82
5.157333,55.75
5.162667,55.7
5.168,55.62
5.173333,55.62
5.178667,55.6
5.184,55.57
5.189333,55.59
5.194667,55.56
5.2,55.48
5.205333,55.51
5.210667,55.45
5.216,55.46
5.221333,55.4
5.226667,55.32
5.232,55.25
5.237333,55.25
5.242667,55.26
5.248,55.25
5.253333,55.26
5.258667,55.3
5.264,55.39
5.269333,55.43
5.274667,55.54
5.28,55.6
5.285333,55.63
5.290667,55.67
5.296,55.72
5.301333,55.75
5.306667,55.74
5.312,55.76
5.317333,55.74
5.322667,55.74
5.328,55.78
5.333333,55.73
5.338667,55.63
5.344,55.56
5.349333,55.49
5.354667,55.43
5.36,55.33
5.365333,55.24
5.370667,55.18
5.376,55.13
5.381333,55.11
5.386667,55.12
5.392,55.1
5.397333,55.07
5.402667,54.98
5.408,54.89
5.413333,54.89
5.418667,54.88
5.424,54.85
5.429333,54.76
5.434667,54.66
5.44,54.61
5.445333,54.51
5.450667,54.57
5.456,54.48
5.461333,54.39
5.466667,54.33
5.472,54.3
5.477333,54.31
5.482667,54.23
5.488,54.24
5.493333,54.17
5.498667,54.25
5.504,54.3
5.509333,54.34
5.514667,54.33
5.52,54.25
5.525333,54.27
5.530667,54.23
5.536,54.26
5.541333,54.65
5.546667,54.89
5.552,54.91
5.557333,54.96
5.562667,55
5.568,54.96
5.573333,54.86
5.578667,54.84
5.584,54.88
5.589333,54.9
5.594667,54.89
5.6,54.97
5.605333,55.12
5.610667,55.29
5.616,55.47
5.621333,55.53
5.626667,55.47
5.632,55.45
5.637333,55.4
5.642667,55.32
5.648,55.33
5.653333,55.29
5.658667,55.24
5.664,55.21
5.669333,55.18
5.674667,55.09
5.68,55.05
5.685333,55
5.690667,54.95
5.696,54.89
5.701333,54.84
5.706667,54.77
5.712,54.71
5.717333,54.72
5.722667,54.68
5.728,54.7
5.733333,54.67
5.738667,54.66
5.744,54.66
5.749333,54.67
5.754667,54.72
5.76,54.72
5.765333,54.66
5.770667,54.63
5.776,54.9
5.781333,54.98
5.786667,54.97
5.792,54.95
5.797333,54.95
5.802667,54.95
5.808,54.9
5.813333,54.82
5.818667,54.81
5.824,54.85
5.829333,54.79
5.834667,54.75
5.84,54.7
5.845333,54.71
5.850667,54.68
5.856,54.63
5.861333,54.71
5.866667,54.73
5.872,54.69
5.877333,54.65
5.882667,54.59
5.888,54.57
5.893333,54.55
5.898667,54.54
5.904,54.47
5.909333,54.41
5.914667,54.38
5.92,54.35
5.925333,54.28
5.930667,54.28
5.936,54.25
5.941333,54.26
5.946667,54.2
5.952,54.19
5.957333,54.21
5.962667,54.19
5.968,54.16
5.973333,54.23
5.978667,54.24
5.984,54.22
5.989333,54.21
5.994667,54.2
6,54.22
6.005333,54.17
6.010667,54.1
6.016,54.08
6.021333,54.03
6.026667,54
6.032,53.95
6.037333,53.96
6.042667,53.98
6.048,53.91
6.053333,53.99
6.058667,53.94
6.064,53.89
6.069333,53.82
6.074667,54.07
6.08,54.08
6.085333,54.2
6.090667,54.36
6.096,54.33
6.101333,54.43
6.106667,54.44
6.112,54.5
6.117333,54.51
6.122667,54.52
6.128,54.48
6.133333,54.49
6.138667,54.49
6.144,54.46
6.149333,54.42
6.154667,54.41
6.16,54.47
6.165333,54.46
6.170667,54.42
6.176,54.5
6.181333,54.46
6.186667,54.4
6.192,54.4
6.197333,54.38
6.202667,54.38
6.208,54.38
6.213333,54.33
6.218667,54.32
6.224,54.33
6.229333,54.34
6.234667,54.32
6.24,54.38
6.245333,54.39
6.250667,54.34
6.256,54.31
6.261333,54.3
6.266667,54.34
6.272,54.3
6.277333,54.28
6.282667,54.29
6.288,54.25
6.293333,54.2
6.298667,54.21
6.304,54.18
6.309333,54.15
6.314667,54.17
6.32,54.17
6.325333,54.2
6.330667,54.21
6.336,54.3
6.341333,54.32
6.346667,54.23
6.352,54.3
6.357333,54.27
6.362667,54.26
6.368,54.26
6.373333,54.2
6.378667,54.17
6.384,54.2
6.389333,54.21
6.394667,54.14
6.4,54.16
6.405333,54.31
6.410667,54.35
6.416,54.45
6.421333,54.44
6.426667,54.42
6.432,54.45
6.437333,54.48
6.442667,54.49
6.448,54.55
6.453333,54.54
6.458667,54.54
6.464,54.62
6.469333,54.65
6.474667,54.73
6.48,54.7
6.485333,54.78
6.490667,54.76
6.496,54.8
6.501333,54.76
6.506667,54.71
6.512,54.66
6.517333,54.64
6.522667,54.61
6.528,54.6
6.533333,54.56
6.538667,54.48
6.544,54.43
6.549333,54.45
6.554667,54.4
6.56,54.37
6.565333,54.29
6.570667,54.29
6.576,54.26
6.581333,54.33
6.586667,54.37
6.592,54.33
6.597333,54.32
6.602667,54.31
6.608,54.48
6.613333,54.59
6.618667,54.62
6.624,54.64
6.629333,54.62
6.634667,54.59
6.64,54.59
6.645333,54.58
6.650667,54.53
6.656,54.55
6.661333,54.59
6.666667,54.59
6.672,54.64
6.677333,54.67
6.682667,54.65
6.688,54.62
6.693333,54.63
6.698667,54.59
6.704,54.55
6.709333,54.56
6.714667,54.52
6.72,54.51
6.725333,54.49
6.730667,54.54
6.736,54.5
6.741333,54.44
6.746667,54.45
6.752,54.37
6.757333,54.31
6.762667,54.32
6.768,54.37
6.773333,54.37
6.778667,54.34
6.784,54.32
6.789333,54.28
6.794667,54.19
6.8,54.24
6.805333,54.24
6.810667,54.26
6.816,54.22
6.821333,54.21
6.826667,54.25
6.832,54.21
6.837333,54.16
6.842667,54.21
6.848,54.18
6.853333,54.24
6.858667,54.27
6.864,54.24
6.869333,54.22
6.874667,54.21
6.88,54.26
6.885333,54.23
6.890667,54.2
6.896,54.12
6.901333,54.12
6.906667,54.2
6.912,54.24
6.917333,54.3
6.922667,54.38
6.928,54.53
6.933333,54.61
6.938667,54.68
6.944,54.7
6.949333,54.71
6.954667,54.69
6.96,54.7
6.965333,54.65
6.970667,54.66
6.976,54.64
6.981333,54.61
6.986667,54.56
6.992,54.47
6.997333,54.59
7.002667,54.53
7.008,54.49
7.013333,54.51
7.018667,54.67
7.024,54.67
7.029333,54.69
7.034667,54.73
7.04,54.72
7.045333,54.88
7.050667,54.94
7.056,54.97
7.061333,55.1
7.066667,55.13
7.072,55.11
7.077333,55.11
7.082667,55.03
7.088,54.98
7.093333,54.94
7.098667,54.9
7.104,54.88
7.109333,54.85
7.114667,54.83
7.12,54.74
7.125333,54.68
7.130667,54.63
7.136,54.62
7.141333,54.6
7.146667,54.58
7.152,54.59
7.157333,54.53
7.162667,54.56
7.168,54.57
7.173333,54.63
7.178667,54.78
7.184,54.8
7.189333,54.82
7.194667,54.84
7.2,54.82
7.205333,54.8
7.210667,54.78
7.216,54.74
7.221333,54.7
7.226667,54.69
7.232,54.57
7.237333,54.54
7.242667,54.51
7.248,54.48
7.253333,54.44
7.258667,54.46
7.264,54.44
7.269333,54.39
7.274667,54.35
7.28,54.35
7.285333,54.3
7.290667,54.25
7.296,54.31
7.301333,54.37
7.306667,54.41
7.312,54.41
7.317333,54.42
7.322667,54.57
7.328,54.64
7.333333,54.89
7.338667,54.98
7.344,55.05
7.349333,55.05
7.354667,55.08
7.36,55.05
7.365333,54.96
7.370667,54.95
7.376,54.85
7.381333,54.85
7.386667,54.77
7.392,54.74
7.397333,54.69
7.402667,54.75
7.408,54.89
7.413333,54.91
7.418667,54.85
7.424,54.83
7.429333,54.79
7.434667,54.74
7.44,54.78
7.445333,54.81
7.450667,54.75
7.456,54.69
7.461333,54.71
7.466667,54.69
7.472,54.64
7.477333,54.61
7.482667,54.56
7.488,54.53
7.493333,54.5
7.498667,54.49
7.504,54.42
7.509333,54.32
7.514667,54.38
7.52,54.37
7.525333,54.45
7.530667,54.58
7.536,54.55
7.541333,54.51
7.546667,54.51
7.552,54.5
7.557333,54.61
7.562667,54.67
7.568,54.64
7.573333,54.66
7.578667,54.67
7.584,54.63
7.589333,54.64
7.594667,54.69
7.6,54.72
7.605333,54.79
7.610667,54.76
7.616,54.77
7.621333,54.76
7.626667,54.7
7.632,54.73
7.637333,54.78
7.642667,54.8
7.648,54.75
7.653333,54.75
7.658667,54.71
7.664,54.73
7.669333,54.74
7.674667,54.74
7.68,54.68
7.685333,54.68
7.690667,54.66
7.696,54.62
7.701333,54.55
7.706667,54.49
7.712,54.5
7.717333,54.47
7.722667,54.52
7.728,54.5
7.733333,54.47
7.738667,54.47
7.744,54.42
7.749333,54.44
7.754667,54.42
7.76,54.43
7.765333,54.41
7.770667,54.47
7.776,54.49
7.781333,54.44
7.786667,54.47
7.792,54.46
7.797333,54.46
7.802667,54.4
7.808,54.38
7.813333,54.35
7.818667,54.4
7.824,54.39
7.829333,54.37
7.834667,54.36
7.84,54.36
7.845333,54.29
7.850667,54.52
7.856,54.54
7.861333,54.5
7.866667,54.43
7.872,54.44
7.877333,54.4
7.882667,54.44
7.888,54.52
7.893333,54.53
7.898667,54.56
7.904,54.5
7.909333,54.44
7.914667,54.45
7.92,54.44
7.925333,54.45
7.930667,54.41
7.936,54.36
7.941333,54.35
7.946667,54.32
7.952,54.31
7.957333,54.29
7.962667,54.24
7.968,54.18
7.973333,54.17
7.978667,54.07
7.984,54.14
7.989333,54.31
7.994667,54.64
8,54.61
8.005333,54.63
8.010667,54.69
8.016,54.68
8.021333,54.7
8.026667,54.67
8.032,54.62
8.037333,54.65
8.042667,54.71
8.048,54.71
8.053333,54.7
8.058667,54.66
8.064,54.68
8.069333,54.71
8.074667,54.67
8.08,54.77
8.085333,54.82
8.090667,54.83
8.096,54.93
8.101333,54.96
8.106667,54.98
8.112,54.99
8.117333,55.02
8.122667,54.95
8.128,54.98
8.133333,55.08
8.138667,55.23
8.144,55.19
8.149333,55.19
8.154667,55.18
8.16,55.18
8.165333,55.21
8.170667,55.26
8.176,55.3
8.181333,55.27
8.186667,55.27
8.192,55.23
8.197333,55.17
8.202667,55.09
8.208,55.04
8.213333,55.15
8.218667,55.14
8.224,55.13
8.229333,55.12
8.234667,55.1
8.24,55.14
8.245333,55.17
8.250667,55.23
8.256,55.32
8.261333,55.34
8.266667,55.24
8.272,55.17
8.277333,55.16
8.282667,55.05
8.288,54.95
8.293333,54.89
8.298667,54.81
8.304,54.81
8.309333,54.8
8.314667,54.75
8.32,54.81
8.325333,54.75
8.330667,54.74
8.336,54.67
8.341333,54.68
8.346667,54.64
8.352,54.62
8.357333,54.59
8.362667,54.57
8.368,54.54
8.373333,54.51
8.378667,54.51
8.384,54.46
8.389333,54.49
8.394667,54.52
8.4,54.42
8.405333,54.43
8.410667,54.43
8.416,54.4
8.421333,54.36
8.426667,54.35
8.432,54.33
8.437333,54.3
8.442667,54.26
8.448,54.19
8.453333,54.21
8.458667,54.26
8.464,54.23
8.469333,54.15
8.474667,54.17
8.48,54.33
8.485333,54.36
8.490667,54.35
8.496,54.29
8.501333,54.3
8.506667,54.28
8.512,54.28
8.517333,54.29
8.522667,54.26
8.528,54.16
8.533333,54.08
8.538667,54.12
8.544,54.08
8.549333,54.09
8.554667,54.14
8.56,54.12
8.565333,54.05
8.570667,54.05
8.576,54.1
8.581333,54.07
8.586667,54.06
8.592,54.06
8.597333,54.1
8.602667,54.08
8.608,54.05
8.613333,54.03
8.618667,54.09
8.624,54.09
8.629333,54.12
8.634667,54.19
8.64,54.19
8.645333,54.29
8.650667,54.29
8.656,54.4
8.661333,54.56
8.666667,54.49
8.672,54.57
8.677333,54.69
8.682667,54.65
8.688,54.64
8.693333,54.6
8.698667,54.62
8.704,54.61
8.709333,54.59
8.714667,54.59
8.72,54.59
8.725333,54.66
8.730667,54.74
8.736,54.67
8.741333,54.69
8.746667,54.66
8.752,54.72
8.757333,54.68
8.762667,54.61
8.768,54.67
8.773333,54.69
8.778667,54.78
8.784,54.85
8.789333,54.89
8.794667,54.86
8.8,54.84
8.805333,54.75
8.810667,54.71
8.816,54.67
8.821333,54.63
8.826667,54.59
8.832,54.61
8.837333,54.58
8.842667,54.54
8.848,54.48
8.853333,54.48
8.858667,54.4
8.864,54.38
8.869333,54.46
8.874667,54.49
8.88,54.56
8.885333,54.58
8.890667,54.58
8.896,54.55
8.901333,54.6
8.906667,54.56
8.912,54.49
8.917333,54.48
8.922667,54.49
8.928,54.66
8.933333,55.09
8.938667,55.3
8.944,55.54
8.949333,55.65
8.954667,55.7
8.96,55.68
8.965333,55.64
8.970667,55.62
8.976,55.73
8.981333,55.79
8.986667,55.74
8.992,55.65
8.997333,55.56
9.002667,55.52
9.008,55.64
9.013333,55.67
9.018667,55.66
9.024,55.58
9.029333,55.49
9.034667,55.42
9.04,55.42
9.045333,55.4
9.050667,55.31
9.056,55.25
9.061333,55.25
9.066667,55.19
9.072,55.12
9.077333,55.08
9.082667,55.08
9.088,55.17
9.093333,55.14
9.098667,55.1
9.104,55.11
9.109333,55.18
9.114667,55.17
9.12,55.21
9.125333,55.4
9.130667,55.43
9.136,55.47
9.141333,55.55
9.146667,55.63
9.152,55.64
9.157333,55.78
9.162667,55.86
9.168,55.89
9.173333,55.96
9.178667,56.12
9.184,56.24
9.189333,56.38
9.194667,56.6
9.2,56.88
9.205333,57.15
9.210667,57.37
9.216,57.48
9.221333,57.51
9.226667,57.62
9.232,57.77
9.237333,57.9
9.242667,58.02
9.248,58.36
9.253333,58.65
9.258667,58.9
9.264,59.19
9.269333,59.46
9.274667,59.57
9.28,59.64
9.285333,59.65
9.290667,59.62
9.296,59.6
9.301333,59.54
9.306667,59.43
9.312,59.37
9.317333,59.24
9.322667,59.15
9.328,59.11
9.333333,59.01
9.338667,58.89
9.344,58.83
9.349333,58.81
9.354667,58.73
9.36,58.66
9.365333,58.53
9.370667,58.44
9.376,58.32
9.381333,58.2
9.386667,58.11
9.392,58
9.397333,57.89
9.402667,57.79
9.408,57.68
9.413333,57.62
9.418667,57.52
9.424,57.4
9.429333,57.28
9.434667,57.16
9.44,57.08
9.445333,56.99
9.450667,56.89
9.456,56.83
9.461333,56.73
9.466667,56.68
9.472,56.6
9.477333,56.57
9.482667,56.55
9.488,56.5
9.493333,56.42
9.498667,56.4
9.504,56.33
9.509333,56.37
9.514667,56.3
9.52,56.3
9.525333,56.29
9.530667,56.25
9.536,56.3
9.541333,56.28
9.546667,56.35
9.552,56.37
9.557333,56.39
9.562667,56.49
9.568,56.52
9.573333,56.6
9.578667,56.61
9.584,56.71
9.589333,56.76
9.594667,56.82
9.6,56.89
9.605333,57.03
9.610667,57.2
9.616,57.28
9.621333,57.28
9.626667,57.34
9.632,57.41
9.637333,57.53
9.642667,57.61
9.648,57.76
9.653333,57.87
9.658667,57.96
9.664,58.07
9.669333,58.1
9.674667,58.13
9.68,58.13
9.685333,58.26
9.690667,58.31
9.696,58.35
9.701333,58.32
9.706667,58.38
9.712,58.29
9.717333,58.22
9.722667,58.09
9.728,58.02
9.733333,57.99
9.738667,58.01
9.744,58.23
9.749333,58.47
9.754667,58.63
9.76,58.61
9.765333,58.61
9.770667,58.7
9.776,58.66
9.781333,58.64
9.786667,58.62
9.792,58.54
9.797333,58.44
9.802667,58.36
9.808,58.32
9.813333,58.31
9.818667,58.28
9.824,58.27
9.829333,58.19
9.834667,58.12
9.84,58.09
9.845333,58.01
9.850667,57.96
9.856,57.93
9.861333,57.98
9.866667,57.9
9.872,57.82
9.877333,57.76
9.882667,57.69
9.888,57.61
9.893333,57.54
9.898667,57.42
9.904,57.31
9.909333,57.21
9.914667,57.09
9.92,56.98
9.925333,56.88
9.930667,56.79
9.936,56.68
9.941333,56.6
9.946667,56.53
9.952,56.47
9.957333,56.41
9.962667,56.32
9.968,56.23
9.973333,56.15
9.978667,56.03
9.984,56.01
9.989333,55.94
9.994667,55.85
10,55.78
10.005333,55.73
10.010667,55.69
10.016,55.64
10.021333,55.61
10.026667,55.5
10.032,55.47
10.037333,55.44
10.042667,55.38
10.048,55.31
10.053333,55.22
10.058667,55.14
10.064,55.17
10.069333,55.11
10.074667,55.04
10.08,54.95
10.085333,54.91
10.090667,54.9
10.096,54.92
10.101333,54.89
10.106667,54.91
10.112,54.91
10.117333,54.94
10.122667,54.92
10.128,54.93
10.133333,54.95
10.138667,54.96
10.144,54.91
10.149333,54.89
10.154667,54.91
10.16,54.95
10.165333,54.88
10.170667,54.94
10.176,54.98
10.181333,54.95
10.186667,54.94
10.192,54.89
10.197333,54.82
10.202667,54.86
10.208,54.94
10.213333,54.89
10.218667,54.85
10.224,54.82
10.229333,54.76
10.234667,54.72
10.24,54.72
10.245333,54.64
10.250667,54.55
10.256,54.76
10.261333,54.81
10.266667,54.82
10.272,54.9
10.277333,54.86
10.282667,54.8
10.288,54.81
10.293333,54.97
10.298667,55
10.304,55.28
10.309333,55.34
10.314667,55.36
10.32,55.45
10.325333,55.61
10.330667,55.75
10.336,55.81
10.341333,55.8
10.346667,55.77
10.352,55.75
10.357333,55.77
10.362667,55.76
10.368,55.67
10.373333,55.57
10.378667,55.5
10.384,55.53
10.389333,55.52
10.394667,55.46
10.4,55.39
10.405333,55.31
10.410667,55.29
10.416,55.21
10.421333,55.13
10.426667,55.09
10.432,55.06
10.437333,54.98
10.442667,54.94
10.448,54.87
10.453333,54.86
10.458667,54.8
10.464,54.73
10.469333,54.68
10.474667,54.76
10.48,54.67
10.485333,54.63
10.490667,54.62
10.496,54.59
10.501333,54.55
10.506667,54.55
10.512,54.62
10.517333,54.74
10.522667,54.8
10.528,55.02
10.533333,55.19
10.538667,55.32
10.544,55.37
10.549333,55.38
10.554667,55.57
10.56,55.59
10.565333,55.58
10.570667,55.53
10.576,55.48
10.581333,55.46
10.586667,55.42
10.592,55.43
10.597333,55.37
10.602667,55.34
10.608,55.36
10.613333,55.27
10.618667,55.19
10.624,55.11
10.629333,55.05
10.634667,54.94
10.64,54.87
10.645333,54.78
10.650667,54.7
10.656,54.65
10.661333,54.6
10.666667,54.62
10.672,54.54
10.677333,54.51
10.682667,54.53
10.688,54.52
10.693333,54.6
10.698667,54.55
10.704,54.48
10.709333,54.48
10.714667,54.46
10.72,54.51
10.725333,54.56
10.730667,54.55
10.736,54.6
10.741333,54.66
10.746667,54.64
10.752,54.63
10.757333,54.65
10.762667,54.76
10.768,54.83
10.773333,54.85
10.778667,54.78
10.784,54.73
10.789333,54.71
10.794667,54.64
10.8,54.57
10.805333,54.54
10.810667,54.52
10.816,54.46
10.821333,54.39
10.826667,54.31
10.832,54.26
10.837333,54.16
10.842667,54.09
10.848,54.05
10.853333,54.05
10.858667,54.14
10.864,54.13
10.869333,54.15
10.874667,54.13
10.88,54.12
10.885333,54.13
10.890667,54.49
10.896,54.86
10.901333,54.82
10.906667,54.81
10.912,54.76
10.917333,54.78
10.922667,54.77
10.928,54.73
10.933333,54.76
10.938667,54.73
10.944,54.67
10.949333,54.58
10.954667,54.6
10.96,54.57
10.965333,54.67
10.970667,54.61
10.976,54.59
10.981333,54.54
10.986667,54.46
10.992,54.47
10.997333,54.41
11.002667,54.38
11.008,54.3
11.013333,54.26
11.018667,54.28
11.024,54.21
11.029333,54.18
11.034667,54.15
11.04,54.16
11.045333,54.19
11.050667,54.13
11.056,54.06
11.061333,54.07
11.066667,54.03
11.072,53.97
11.077333,54.06
11.082667,54.18
11.088,54.1
11.093333,54.2
11.098667,54.25
11.104,54.22
11.109333,54.25
11.114667,54.29
11.12,54.33
11.125333,54.31
11.130667,54.35
11.136,54.37
11.141333,54.36
11.146667,54.32
11.152,54.32
11.157333,54.27
11.162667,54.35
11.168,54.27
11.173333,54.2
11.178667,54.25
11.184,54.2
11.189333,54.16
11.194667,54.08
11.2,53.98
11.205333,53.9
11.210667,53.89
11.216,53.83
11.221333,53.78
11.226667,53.86
11.232,54.02
11.237333,54.16
11.242667,54.48
11.248,54.6
11.253333,54.61
11.258667,54.63
11.264,54.62
11.269333,54.63
11.274667,54.68
11.28,54.66
11.285333,54.64
11.290667,54.57
11.296,54.47
11.301333,54.42
11.306667,54.35
11.312,54.35
11.317333,54.27
11.322667,54.23
11.328,54.18
11.333333,54.17
11.338667,54.22
11.344,54.24
11.349333,54.23
11.354667,54.17
11.36,54.11
11.365333,54.06
11.370667,54.07
11.376,54.07
11.381333,54.02
11.386667,54
11.392,54.03
11.397333,54
11.402667,53.99
11.408,53.95
11.413333,53.92
11.418667,53.92
11.424,53.93
11.429333,54.04
11.434667,54.1
11.44,54.09
11.445333,54.08
11.450667,54.26
11.456,54.3
11.461333,54.26
11.466667,54.24
11.472,54.26
11.477333,54.15
11.482667,54.08
11.488,54
11.493333,54.01
11.498667,53.94
11.504,53.87
11.509333,53.83
11.514667,53.72
11.52,53.73
11.525333,53.67
11.530667,53.58
11.536,53.54
11.541333,53.49
11.546667,53.54
11.552,53.58
11.557333,53.57
11.562667,53.55
11.568,53.49
11.573333,53.46
11.578667,53.47
11.584,53.51
11.589333,53.47
11.594667,53.49
11.6,53.46
11.605333,53.46
11.610667,53.58
11.616,53.6
11.621333,53.6
11.626667,53.64
11.632,53.72
11.637333,53.71
11.642667,53.78
11.648,53.89
11.653333,53.91
11.658667,54.64
11.664,54.68
11.669333,54.68
11.674667,54.67
11.68,54.65
11.685333,54.68
11.690667,54.71
11.696,54.73
11.701333,54.86
11.706667,54.91
11.712,54.96
11.717333,54.91
11.722667,54.86
11.728,54.86
11.733333,54.77
11.738667,54.75
11.744,54.65
11.749333,54.64
11.754667,54.65
11.76,54.67
11.765333,54.63
11.770667,54.7
11.776,54.67
11.781333,54.69
11.786667,54.68
11.792,54.66
11.797333,54.63
11.802667,54.68
11.808,54.63
11.813333,54.56
11.818667,54.53
11.824,54.54
11.829333,54.56
11.834667,54.6
11.84,54.69
11.845333,54.85
11.850667,54.92
11.856,54.99
11.861333,55
11.866667,55.05
11.872,55.12
11.877333,55.12
11.882667,55.05
11.888,55.05
11.893333,55.05
11.898667,55.03
11.904,54.99
11.909333,55.02
11.914667,54.98
11.92,54.95
11.925333,54.96
11.930667,54.91
11.936,54.92
11.941333,55
11.946667,54.91
11.952,54.88
11.957333,54.83
11.962667,54.86
11.968,54.88
11.973333,54.9
11.978667,54.85
11.984,54.78
11.989333,54.78
11.994667,54.81
12,54.73
12.005333,54.82
12.010667,54.81
12.016,54.81
12.021333,54.87
12.026667,54.84
12.032,54.75
12.037333,54.76
12.042667,54.7
12.048,54.65
12.053333,54.6
12.058667,54.6
12.064,54.64
12.069333,54.6
12.074667,54.55
12.08,54.54
12.085333,54.52
12.090667,54.56
12.096,54.56
12.101333,54.6
12.106667,54.68
12.112,54.69
12.117333,54.68
12.122667,54.7
12.128,54.73
12.133333,54.84
12.138667,54.79
12.144,54.76
12.149333,54.7
12.154667,54.67
12.16,54.63
12.165333,54.64
12.170667,54.61
12.176,54.6
12.181333,54.61
12.186667,54.58
12.192,54.56
12.197333,54.5
12.202667,54.47
12.208,54.43
12.213333,54.36
12.218667,54.37
12.224,54.44
12.229333,54.46
12.234667,54.38
12.24,54.4
12.245333,54.36
12.250667,54.38
12.256,54.48
12.261333,54.56
12.266667,54.53
12.272,54.5
12.277333,54.47
12.282667,54.48
12.288,54.49
12.293333,54.5
12.298667,54.52
12.304,54.49
12.309333,54.49
12.314667,54.48
12.32,54.46
12.325333,54.55
12.330667,54.87
12.336,54.89
12.341333,54.88
12.346667,54.87
12.352,54.9
12.357333,54.85
12.362667,54.83
12.368,54.82
12.373333,54.8
12.378667,54.75
12.384,54.7
12.389333,54.67
12.394667,54.66
12.4,54.66
12.405333,54.64
12.410667,54.56
12.416,54.56
12.421333,54.48
12.426667,54.45
12.432,54.38
12.437333,54.34
12.442667,54.31
12.448,54.28
12.453333,54.23
12.458667,54.21
12.464,54.15
12.469333,54.12
12.474667,54.14
12.48,54.23
12.485333,54.22
12.490667,54.21
12.496,54.29
12.501333,54.22
12.506667,54.18
12.512,54.27
12.517333,54.3
12.522667,54.24
12.528,54.36
12.533333,54.34
12.538667,54.35
12.544,54.43
12.549333,54.45
12.554667,54.44
12.56,54.42
12.565333,54.39
12.570667,54.32
12.576,54.3
12.581333,54.28
12.586667,54.32
12.592,54.28
12.597333,54.34
12.602667,54.29
12.608,54.23
12.613333,54.2
12.618667,54.18
12.624,54.16
12.629333,54.14
12.634667,54.15
12.64,54.07
12.645333,54.03
12.650667,54.01
12.656,54.05
12.661333,54.16
12.666667,54.19
12.672,54.12
12.677333,54.08
12.682667,54.03
12.688,53.99
12.693333,53.94
12.698667,53.95
12.704,53.99
12.709333,53.98
12.714667,54.01
12.72,53.97
12.725333,54.02
12.730667,53.95
12.736,53.95
12.741333,53.94
12.746667,53.93
12.752,53.94
12.757333,53.89
12.762667,53.84
12.768,53.85
12.773333,53.96
12.778667,54.03
12.784,54.2
12.789333,54.55
12.794667,55.02
12.8,55.22
12.805333,55.41
12.810667,55.64
12.816,55.7
12.821333,55.74
12.826667,55.78
12.832,55.76
12.837333,55.81
12.842667,55.76
12.848,55.85
12.853333,55.81
12.858667,55.76
12.864,55.71
12.869333,55.71
12.874667,55.75
12.88,56.13
12.885333,56.15
12.890667,56.16
12.896,56.12
12.901333,56.07
12.906667,56.05
12.912,56.11
12.917333,56.08
12.922667,56.12
12.928,56.01
12.933333,55.99
12.938667,55.95
12.944,55.92
12.949333,55.86
12.954667,55.86
12.96,55.9
12.965333,55.86
12.970667,55.83
12.976,55.8
12.981333,55.85
12.986667,55.84
12.992,55.84
12.997333,55.84
13.002667,55.83
13.008,55.93
13.013333,55.97
13.018667,55.98
13.024,56.07
13.029333,56.04
13.034667,56.09
13.04,56.03
13.045333,56.06
13.050667,55.96
13.056,55.87
13.061333,55.9
13.066667,55.88
13.072,55.78
13.077333,55.79
13.082667,55.67
13.088,55.58
13.093333,55.55
13.098667,55.53
13.104,55.47
13.109333,55.46
13.114667,55.43
13.12,55.46
13.125333,55.46
13.130667,55.37
13.136,55.41
13.141333,55.4
13.146667,55.42
13.152,55.49
13.157333,55.49
13.162667,55.38
13.168,55.34
13.173333,55.28
13.178667,55.2
13.184,55.14
13.189333,55.07
13.194667,55.06
13.2,55.02
13.205333,55.02
13.210667,55.15
13.216,55.17
13.221333,55.13
13.226667,55.16
13.232,55.16
13.237333,55.18
13.242667,55.15
13.248,55.15
13.253333,55.23
13.258667,55.38
13.264,55.39
13.269333,55.37
13.274667,55.35
13.28,55.3
13.285333,55.27
13.290667,55.39
13.296,55.44
13.301333,55.37
13.306667,55.27
13.312,55.53
13.317333,55.57
13.322667,55.65
13.328,55.6
13.333333,55.56
13.338667,55.51
13.344,55.53
13.349333,55.49
13.354667,55.4
13.36,55.33
13.365333,55.35
13.370667,55.46
13.376,55.44
13.381333,55.4
13.386667,55.31
13.392,55.31
13.397333,55.29
13.402667,55.25
13.408,55.22
13.413333,55.21
13.418667,55.23
13.424,55.2
13.429333,55.16
13.434667,55.16
13.44,55.13
13.445333,55.13
13.450667,55.16
13.456,55.18
13.461333,55.19
13.466667,55.19
13.472,55.28
13.477333,55.27
13.482667,55.22
13.488,55.2
13.493333,55.21
13.498667,55.14
13.504,55.05
13.509333,55.07
13.514667,55
13.52,54.93
13.525333,54.95
13.530667,54.92
13.536,54.86
13.541333,54.79
13.546667,54.77
13.552,54.71
13.557333,54.66
13.562667,54.67
13.568,54.65
13.573333,54.64
13.578667,54.61
13.584,54.54
13.589333,54.55
13.594667,54.49
13.6,54.53
13.605333,54.54
13.610667,54.51
13.616,54.51
13.621333,54.62
13.626667,54.63
13.632,54.69
13.637333,54.84
13.642667,54.88
13.648,54.85
13.653333,54.84
13.658667,55.02
13.664,55.11
13.669333,55.21
13.674667,55.19
13.68,55.23
13.685333,55.36
13.690667,55.4
13.696,55.34
13.701333,55.27
13.706667,55.24
13.712,55.22
13.717333,55.26
13.722667,55.18
13.728,55.2
13.733333,55.16
13.738667,55.13
13.744,55.17
13.749333,55.19
13.754667,55.19
13.76,55.18
13.765333,55.12
13.770667,55.12
13.776,55.23
13.781333,55.26
13.786667,55.2
13.792,55.09
13.797333,55.1
13.802667,55.1
13.808,55.12
13.813333,55.03
13.818667,55.05
13.824,55.03
13.829333,54.95
13.834667,54.94
13.84,54.96
13.845333,54.99
13.850667,55.04
13.856,55.01
13.861333,54.99
13.866667,54.94
13.872,54.89
13.877333,54.95
13.882667,54.93
13.888,55
13.893333,54.97
13.898667,54.97
13.904,55.07
13.909333,55.09
13.914667,55.19
13.92,55.21
13.925333,55.23
13.930667,55.24
13.936,55.27
13.941333,55.22
13.946667,55.2
13.952,55.25
13.957333,55.29
13.962667,55.42
13.968,55.43
13.973333,55.35
13.978667,55.29
13.984,55.23
13.989333,55.22
13.994667,55.21
14,55.19
14.005333,55.18
14.010667,55.15
14.016,55.13
14.021333,55.08
14.026667,55.1
14.032,55.03
14.037333,54.94
14.042667,54.94
14.048,54.93
14.053333,54.87
14.058667,54.81
14.064,54.88
14.069333,54.87
14.074667,54.87
14.08,54.89
14.085333,54.89
14.090667,54.88
14.096,54.88
14.101333,54.92
14.106667,54.9
14.112,54.97
14.117333,55.1
14.122667,55.2
14.128,55.19
14.133333,55.26
14.138667,55.2
14.144,55.21
14.149333,55.25
14.154667,55.22
14.16,55.29
14.165333,55.24
14.170667,55.21
14.176,55.17
14.181333,55.21
14.186667,55.23
14.192,55.16
14.197333,55.08
14.202667,55.06
14.208,55.05
14.213333,55.11
14.218667,55.09
14.224,55.04
14.229333,55.01
14.234667,55.01
14.24,55.04
14.245333,54.99
14.250667,55
14.256,54.98
14.261333,54.96
14.266667,54.92
14.272,54.94
14.277333,54.95
14.282667,54.92
14.288,54.89
14.293333,54.86
14.298667,54.88
14.304,54.84
14.309333,54.76
14.314667,54.67
14.32,54.59
14.325333,54.62
14.330667,54.62
14.336,54.59
14.341333,54.6
14.346667,54.69
14.352,54.67
14.357333,54.69
14.362667,54.72
14.368,54.81
14.373333,54.86
14.378667,54.9
14.384,55.17
14.389333,55.45
14.394667,55.62
14.4,55.78
14.405333,55.81
14.410667,55.85
14.416,55.9
14.421333,55.95
14.426667,56
14.432,55.98
14.437333,55.93
14.442667,55.89
14.448,55.8
14.453333,55.71
14.458667,55.67
14.464,55.63
14.469333,55.57
14.474667,55.47
14.48,55.45
14.485333,55.44
14.490667,55.4
14.496,55.41
14.501333,55.36
14.506667,55.36
14.512,55.4
14.517333,55.36
14.522667,55.36
14.528,55.37
14.533333,55.36
14.538667,55.32
14.544,55.3
14.549333,55.32
14.554667,55.3
14.56,55.3
14.565333,55.26
14.570667,55.17
14.576,55.14
14.581333,55.16
14.586667,55.18
14.592,55.14
14.597333,55.27
14.602667,55.37
14.608,55.43
14.613333,55.53
14.618667,55.57
14.624,55.55
14.629333,55.53
14.634667,55.61
14.64,55.66
14.645333,55.75
14.650667,55.8
14.656,55.93
14.661333,56.1
14.666667,56.11
14.672,56.21
14.677333,56.3
14.682667,56.33
14.688,56.31
14.693333,56.37
14.698667,56.44
14.704,56.47
14.709333,56.5
14.714667,56.6
14.72,56.7
14.725333,56.72
14.730667,56.65
14.736,56.68
14.741333,56.73
14.746667,56.88
14.752,56.95
14.757333,57.1
14.762667,57.23
14.768,57.47
14.773333,57.81
14.778667,58.04
14.784,58.29
14.789333,58.41
14.794667,58.41
14.8,58.49
14.805333,58.54
14.810667,58.55
14.816,58.55
14.821333,58.58
14.826667,58.61
14.832,58.61
14.837333,58.61
14.842667,58.65
14.848,58.61
14.853333,58.58
14.858667,58.6
14.864,58.59
14.869333,58.59
14.874667,58.59
14.88,58.55
14.885333,58.61
14.890667,58.61
14.896,58.58
14.901333,58.61
14.906667,58.64
14.912,58.61
14.917333,58.55
14.922667,58.51
14.928,58.46
14.933333,58.42
14.938667,58.37
14.944,58.32
14.949333,58.34
14.954667,58.44
14.96,58.44
14.965333,58.5
14.970667,58.49
14.976,58.51
14.981333,58.52
14.986667,58.48
14.992,58.5
14.997333,58.5
15.002667,58.5
15.008,58.44
15.013333,58.47
15.018667,58.51
15.024,58.45
15.029333,58.37
15.034667,58.31
15.04,58.21
15.045333,58.18
15.050667,58.19
15.056,58.38
15.061333,58.45
15.066667,58.5
15.072,58.52
15.077333,58.68
15.082667,58.71
15.088,58.71
15.093333,58.72
15.098667,58.68
15.104,58.55
15.109333,58.5
15.114667,58.49
15.12,58.53
15.125333,58.57
15.130667,58.58
15.136,58.63
15.141333,58.57
15.146667,58.59
15.152,58.53
15.157333,58.47
15.162667,58.43
15.168,58.38
15.173333,58.28
15.178667,58.28
15.184,58.24
15.189333,58.23
15.194667,58.2
15.2,58.11
15.205333,58.08
15.210667,58.07
15.216,58
15.221333,57.97
15.226667,57.88
15.232,57.84
15.237333,57.79
15.242667,57.8
15.248,57.74
15.253333,57.69
15.258667,57.62
15.264,57.53
15.269333,57.45
15.274667,57.5
15.28,57.44
15.285333,57.38
15.290667,57.32
15.296,57.32
15.301333,57.42
15.306667,57.45
15.312,57.44
15.317333,57.5
15.322667,57.65
15.328,57.85
15.333333,58.07
15.338667,58.22
15.344,58.3
15.349333,58.36
15.354667,58.38
15.36,58.42
15.365333,58.5
15.370667,58.64
15.376,58.65
15.381333,58.74
15.386667,58.79
15.392,58.89
15.397333,59
15.402667,59.07
15.408,59.19
15.413333,59.26
15.418667,59.28
15.424,59.37
15.429333,59.43
15.434667,59.45
15.44,59.53
15.445333,59.7
15.450667,59.82
15.456,60.15
15.461333,60.38
15.466667,60.52
15.472,60.56
15.477333,60.55
15.482667,60.54
15.488,60.59
15.493333,60.54
15.498667,60.57
15.504,60.48
15.509333,60.39
15.514667,60.32
15.52,60.39
15.525333,60.37
15.530667,60.38
15.536,60.5
15.541333,60.73
15.546667,60.95
15.552,61.09
15.557333,61.17
15.562667,61.29
15.568,61.37
15.573333,61.33
15.578667,61.37
15.584,61.36
15.589333,61.43
15.594667,61.46
15.6,61.51
15.605333,61.57
15.610667,61.66
15.616,61.62
15.621333,61.65
15.626667,61.71
15.632,61.7
15.637333,61.64
15.642667,61.58
15.648,61.47
15.653333,61.4
15.658667,61.3
15.664,61.23
15.669333,61.16
15.674667,61.12
15.68,61.08
15.685333,60.98
15.690667,60.88
15.696,60.78
15.701333,60.7
15.706667,60.73
15.712,60.65
15.717333,60.53
15.722667,60.45
15.728,60.37
15.733333,60.37
15.738667,60.37
15.744,60.27
15.749333,60.25
15.754667,60.22
15.76,60.11
15.765333,60.04
15.770667,60.05
15.776,59.99
15.781333,59.89
15.786667,59.89
15.792,59.88
15.797333,59.9
15.802667,59.98
15.808,60.06
15.813333,60.05
15.818667,60.09
15.824,60.13
15.829333,60.09
15.834667,60
15.84,59.89
15.845333,59.81
15.850667,59.76
15.856,59.76
15.861333,59.83
15.866667,59.83
15.872,59.82
15.877333,59.81
15.882667,59.87
15.888,59.87
15.893333,59.97
15.898667,59.99
15.904,59.97
15.909333,59.97
15.914667,60.05
15.92,60.01
15.925333,59.99
15.930667,60.09
15.936,60.1
15.941333,60.06
15.946667,60.11
15.952,60.13
15.957333,60.09
15.962667,60.03
15.968,60.01
15.973333,59.97
15.978667,59.96
15.984,59.88
15.989333,59.89
15.994667,59.9
16,59.88
16.005333,59.93
16.010667,59.94
16.016,59.95
16.021333,60
16.026667,60.06
16.032,60.12
16.037333,60.18
16.042667,60.22
16.048,60.24
16.053333,60.33
16.058667,60.3
16.064,60.28
16.069333,60.25
16.074667,60.19
16.08,60.19
16.085333,60.21
16.090667,60.19
16.096,60.15
16.101333,60.12
16.106667,60.03
16.112,59.97
16.117333,59.95
16.122667,59.94
16.128,59.84
16.133333,59.8
16.138667,59.79
16.144,59.73
16.149333,59.81
16.154667,59.86
16.16,59.93
16.165333,59.98
16.170667,60.07
16.176,60.17
16.181333,60.23
16.186667,60.35
16.192,60.53
16.197333,60.57
16.202667,60.62
16.208,60.67
16.213333,60.67
16.218667,60.75
16.224,60.76
16.229333,60.75
16.234667,60.75
16.24,60.74
16.245333,60.7
16.250667,60.68
16.256,60.59
16.261333,60.52
16.266667,60.47
16.272,60.42
16.277333,60.55
16.282667,60.65
16.288,60.78
16.293333,60.88
16.298667,60.87
16.304,60.98
16.309333,60.96
16.314667,60.98
16.32,60.9
16.325333,60.85
16.330667,60.87
16.336,60.86
16.341333,60.82
16.346667,60.78
16.352,60.68
16.357333,60.65
16.362667,60.6
16.368,60.55
16.373333,60.46
16.378667,60.4
16.384,60.36
16.389333,60.37
16.394667,60.26
16.4,60.26
16.405333,60.25
16.410667,60.23
16.416,60.15
16.421333,60.15
16.426667,60.07
16.432,60.06
16.437333,60.05
16.442667,60.06
16.448,60.1
16.453333,60.28
16.458667,60.45
16.464,60.46
16.469333,60.51
16.474667,60.62
16.48,60.66
16.485333,60.58
16.490667,60.57
16.496,60.62
16.501333,60.65
16.506667,60.57
16.512,60.54
16.517333,60.47
16.522667,60.43
16.528,60.41
16.533333,60.34
16.538667,60.27
16.544,60.14
16.549333,60.12
16.554667,60.08
16.56,60.02
16.565333,59.93
16.570667,59.85
16.576,59.85
16.581333,59.84
16.586667,59.78
16.592,59.76
16.597333,59.76
16.602667,59.72
16.608,59.72
16.613333,59.7
16.618667,59.71
16.624,59.87
16.629333,59.94
16.634667,59.87
16.64,59.81
16.645333,59.74
16.650667,59.69
16.656,59.68
16.661333,59.67
16.666667,59.7
16.672,59.76
16.677333,59.85
16.682667,60.03
16.688,60.13
16.693333,60.08
16.698667,59.99
16.704,60.05
16.709333,60.02
16.714667,59.91
16.72,59.84
16.725333,59.81
16.730667,59.79
16.736,59.81
16.741333,59.82
16.746667,59.74
16.752,59.72
16.757333,59.72
16.762667,59.78
16.768,59.82
16.773333,59.81
16.778667,59.8
16.784,59.79
16.789333,59.86
16.794667,59.93
16.8,59.86
16.805333,59.88
16.810667,59.86
16.816,59.82
16.821333,59.74
16.826667,59.67
16.832,59.54
16.837333,59.43
16.842667,59.3
16.848,59.18
16.853333,59.14
16.858667,59.02
16.864,58.94
16.869333,58.89
16.874667,58.96
16.88,58.99
16.885333,58.99
16.890667,59.07
16.896,59.09
16.901333,59.1
16.906667,59.19
16.912,59.49
16.917333,59.56
16.922667,59.64
16.928,59.72
16.933333,59.96
16.938667,59.99
16.944,60.05
16.949333,60.22
16.954667,60.45
16.96,60.62
16.965333,60.85
16.970667,61.07
16.976,61.26
16.981333,61.5
16.986667,61.64
16.992,61.86
16.997333,62.06
17.002667,62.27
17.008,62.47
17.013333,62.6
17.018667,62.67
17.024,62.71
17.029333,62.75
17.034667,62.7
17.04,62.59
17.045333,62.51
17.050667,62.37
17.056,62.23
17.061333,62.21
17.066667,62.2
17.072,62.15
17.077333,62.12
17.082667,62.07
17.088,62.09
17.093333,62.06
17.098667,61.95
17.104,61.84
17.109333,61.76
17.114667,61.67
17.12,61.57
17.125333,61.54
17.130667,61.51
17.136,61.47
17.141333,61.45
17.146667,61.36
17.152,61.31
17.157333,61.23
17.162667,61.16
17.168,61.07
17.173333,61.08
17.178667,61.01
17.184,61.02
17.189333,60.92
17.194667,60.85
17.2,60.75
17.205333,60.63
17.210667,60.53
17.216,60.45
17.221333,60.38
17.226667,60.28
17.232,60.2
17.237333,60.16
17.242667,60.04
17.248,59.97
17.253333,59.91
17.258667,59.88
17.264,59.8
17.269333,59.78
17.274667,59.7
17.28,59.62
17.285333,59.59
17.290667,59.54
17.296,59.56
17.301333,59.48
17.306667,59.48
17.312,59.52
17.317333,59.5
17.322667,59.55
17.328,59.48
17.333333,59.51
17.338667,59.58
17.344,59.64
17.349333,59.63
17.354667,59.56
17.36,59.47
17.365333,59.4
17.370667,59.45
17.376,59.56
17.381333,59.57
17.386667,59.66
17.392,59.76
17.397333,59.89
17.402667,59.95
17.408,60.03
17.413333,60.11
17.418667,60.21
17.424,60.29
17.429333,60.39
17.434667,60.37
17.44,60.4
17.445333,60.37
17.450667,60.35
17.456,60.39
17.461333,60.46
17.466667,60.5
17.472,60.52
17.477333,60.55
17.482667,60.61
17.488,60.59
17.493333,60.66
17.498667,60.66
17.504,60.69
17.509333,60.64
17.514667,60.58
17.52,60.55
17.525333,60.5
17.530667,60.43
17.536,60.4
17.541333,60.4
17.546667,60.4
17.552,60.36
17.557333,60.43
17.562667,60.4
17.568,60.37
17.573333,60.4
17.578667,60.38
17.584,60.38
17.589333,60.38
17.594667,60.39
17.6,60.36
17.605333,60.38
17.610667,60.37
17.616,60.44
17.621333,60.43
17.626667,60.33
17.632,60.28
17.637333,60.27
17.642667,60.23
17.648,60.24
17.653333,60.19
17.658667,60.19
17.664,60.18
17.669333,60.23
17.674667,60.39
17.68,60.45
17.685333,60.53
17.690667,60.62
17.696,60.61
17.701333,60.56
17.706667,60.52
17.712,60.5
17.717333,60.51
17.722667,60.46
17.728,60.43
17.733333,60.41
17.738667,60.38
17.744,60.47
17.749333,60.51
17.754667,60.62
17.76,60.73
17.765333,60.8
17.770667,60.77
17.776,60.99
17.781333,61.05
17.786667,61
17.792,60.95
17.797333,60.84
17.802667,60.8
17.808,60.75
17.813333,60.75
17.818667,60.75
17.824,60.68
17.829333,60.58
17.834667,60.53
17.84,60.46
17.845333,60.4
17.850667,60.4
17.856,60.46
17.861333,60.56
17.866667,60.66
17.872,60.78
17.877333,60.86
17.882667,60.86
17.888,60.83
17.893333,60.78
17.898667,60.73
17.904,60.69
17.909333,60.59
17.914667,60.49
17.92,60.4
17.925333,60.3
17.930667,60.17
17.936,60.1
17.941333,60.04
17.946667,59.99
17.952,59.94
17.957333,59.85
17.962667,59.76
17.968,59.75
17.973333,59.73
17.978667,59.64
17.984,59.57
17.989333,59.47
17.994667,59.38
18,59.29
18.005333,59.24
18.010667,59.16
18.016,59.08
18.021333,59.01
18.026667,58.98
18.032,58.88
18.037333,58.79
18.042667,58.74
18.048,58.67
18.053333,58.6
18.058667,58.5
18.064,58.46
18.069333,58.47
18.074667,58.44
18.08,58.4
18.085333,58.33
18.090667,58.23
18.096,58.16
18.101333,58.06
18.106667,58.04
18.112,57.97
18.117333,57.96
18.122667,57.93
18.128,57.91
18.133333,57.89
18.138667,57.86
18.144,57.88
18.149333,57.83
18.154667,57.78
18.16,57.75
18.165333,57.76
18.170667,57.74
18.176,57.72
18.181333,57.64
18.186667,57.67
18.192,57.67
18.197333,57.6
18.202667,57.62
18.208,57.67
18.213333,57.61
18.218667,57.65
18.224,57.74
18.229333,57.71
18.234667,57.86
18.24,57.88
18.245333,57.89
18.250667,57.9
18.256,58.19
18.261333,58.2
18.266667,58.29
18.272,58.46
18.277333,58.5
18.282667,58.42
18.288,58.48
18.293333,58.43
18.298667,58.48
18.304,58.47
18.309333,58.5
18.314667,58.48
18.32,58.45
18.325333,58.42
18.330667,58.35
18.336,58.32
18.341333,58.25
18.346667,58.21
18.352,58.2
18.357333,58.16
18.362667,58.11
18.368,58.08
18.373333,58.13
18.378667,58.18
18.384,58.24
18.389333,58.27
18.394667,58.33
18.4,58.37
18.405333,58.36
18.410667,58.3
18.416,58.37
18.421333,58.36
18.426667,58.28
18.432,58.19
18.437333,58.17
18.442667,58.13
18.448,58.09
18.453333,58.03
18.458667,58.18
18.464,58.18
18.469333,58.16
18.474667,58.13
18.48,58.1
18.485333,57.99
18.490667,57.96
18.496,58.16
18.501333,58.14
18.506667,58.04
18.512,57.98
18.517333,57.89
18.522667,57.85
18.528,57.75
18.533333,57.7
18.538667,57.65
18.544,57.62
18.549333,57.63
18.554667,57.63
18.56,57.64
18.565333,57.65
18.570667,57.6
18.576,57.53
18.581333,57.53
18.586667,57.49
18.592,57.38
18.597333,57.32
18.602667,57.24
18.608,57.18
18.613333,57.16
18.618667,57.2
18.624,57.16
18.629333,57.16
18.634667,57.16
18.64,57.11
18.645333,57.13
18.650667,57.14
18.656,57.11
18.661333,57.03
18.666667,56.98
18.672,56.93
18.677333,56.88
18.682667,56.8
18.688,56.74
18.693333,56.73
18.698667,56.68
18.704,56.63
18.709333,56.56
18.714667,56.54
18.72,56.45
18.725333,56.41
18.730667,56.33
18.736,56.26
18.741333,56.23
18.746667,56.16
18.752,56.23
18.757333,56.23
18.762667,56.18
18.768,56.15
18.773333,56.14
18.778667,56.12
18.784,56.07
18.789333,56.04
18.794667,56.01
18.8,55.96
18.805333,55.99
18.810667,55.99
18.816,55.94
18.821333,55.96
18.826667,55.95
18.832,55.88
18.837333,55.84
18.842667,55.82
18.848,55.81
18.853333,55.79
18.858667,55.8
18.864,55.86
18.869333,56.09
18.874667,56.12
18.88,56.21
18.885333,56.37
18.890667,56.86
18.896,57.07
18.901333,57.08
18.906667,57.06
18.912,57.12
18.917333,57.23
18.922667,57.4
18.928,57.51
18.933333,57.6
18.938667,57.71
18.944,57.87
18.949333,57.98
18.954667,58
18.96,57.94
18.965333,57.95
18.970667,58.03
18.976,58.1
18.981333,58.15
18.986667,58.25
18.992,58.21
18.997333,58.19
19.002667,58.12
19.008,58.08
19.013333,58.02
19.018667,57.91
19.024,57.85
19.029333,57.82
19.034667,57.78
19.04,57.71
19.045333,57.63
19.050667,57.53
19.056,57.47
19.061333,57.42
19.066667,57.36
19.072,57.33
19.077333,57.28
19.082667,57.2
19.088,57.16
19.093333,57.09
19.098667,57.06
19.104,57.04
19.109333,57.01
19.114667,56.99
19.12,56.93
19.125333,56.9
19.130667,56.9
19.136,56.87
19.141333,56.81
19.146667,56.77
19.152,56.7
19.157333,56.66
19.162667,56.67
19.168,56.61
19.173333,56.56
19.178667,56.55
19.184,56.52
19.189333,56.51
19.194667,56.5
19.2,56.45
19.205333,56.48
19.210667,56.51
19.216,56.49
19.221333,56.45
19.226667,56.43
19.232,56.45
19.237333,56.38
19.242667,56.37
19.248,56.44
19.253333,56.45
19.258667,56.51
19.264,56.54
19.269333,56.59
19.274667,56.68
19.28,56.71
19.285333,56.71
19.290667,56.68
19.296,56.72
19.301333,56.72
19.306667,56.72
19.312,56.79
19.317333,56.91
19.322667,56.95
19.328,57.03
19.333333,57.23
19.338667,57.29
19.344,57.37
19.349333,57.45
19.354667,57.6
19.36,57.65
19.365333,57.71
19.370667,57.81
19.376,57.82
19.381333,57.82
19.386667,57.82
19.392,57.78
19.397333,57.8
19.402667,58.3
19.408,58.66
19.413333,58.85
19.418667,58.97
19.424,59.01
19.429333,58.98
19.434667,58.97
19.44,58.98
19.445333,58.91
19.450667,58.84
19.456,58.8
19.461333,58.78
19.466667,58.79
19.472,58.73
19.477333,58.69
19.482667,58.64
19.488,58.62
19.493333,58.68
19.498667,58.72
19.504,58.8
19.509333,58.85
19.514667,59.05
19.52,59.05
19.525333,59
19.530667,58.96
19.536,59.04
19.541333,59.03
19.546667,59.02
19.552,59
19.557333,59.11
19.562667,59.15
19.568,59.15
19.573333,59.13
19.578667,59.25
19.584,59.18
19.589333,59.13
19.594667,59.11
19.6,59.05
19.605333,58.99
19.610667,58.94
19.616,58.84
19.621333,58.78
19.626667,58.69
19.632,58.63
19.637333,58.63
19.642667,58.73
19.648,58.97
19.653333,59.03
19.658667,59.2
19.664,59.35
19.669333,59.49
19.674667,59.63
19.68,59.62
19.685333,59.77
19.690667,59.86
19.696,59.79
19.701333,59.82
19.706667,59.84
19.712,59.86
19.717333,59.78
19.722667,59.81
19.728,59.81
19.733333,59.8
19.738667,59.96
19.744,60.05
19.749333,60.18
19.754667,60.34
19.76,60.52
19.765333,60.55
19.770667,60.64
19.776,60.75
19.781333,60.84
19.786667,60.96
19.792,61.04
19.797333,60.99
19.802667,61.04
19.808,61.03
19.813333,61.01
19.818667,61.02
19.824,61.04
19.829333,61.32
19.834667,61.58
19.84,61.79
19.845333,61.94
19.850667,62.16
19.856,62.34
19.861333,62.5
19.866667,62.55
19.872,62.7
19.877333,62.9
19.882667,63.11
19.888,63.34
19.893333,63.33
19.898667,63.26
19.904,63.19
19.909333,63.11
19.914667,63.12
19.92,63.18
19.925333,63.28
19.930667,63.32
19.936,63.33
19.941333,63.37
19.946667,63.42
19.952,63.51
19.957333,63.66
19.962667,63.69
19.968,63.67
19.973333,63.58
19.978667,63.58
19.984,63.55
19.989333,63.49
19.994667,63.49
20,63.44
20.005333,63.34
20.010667,63.27
20.016,63.17
20.021333,63.15
20.026667,63.07
20.032,62.99
20.037333,62.9
20.042667,62.81
20.048,62.72
20.053333,62.63
20.058667,62.54
20.064,62.46
20.069333,62.36
20.074667,62.27
20.08,62.18
20.085333,62.1
20.090667,62.01
20.096,61.9
20.101333,61.8
20.106667,61.71
20.112,61.61
20.117333,61.54
20.122667,61.42
20.128,61.34
20.133333,61.38
20.138667,61.49
20.144,61.57
20.149333,61.62
20.154667,61.53
20.16,61.39
20.165333,61.28
20.170667,61.19
20.176,61.04
20.181333,60.94
20.186667,60.83
20.192,60.75
20.197333,60.66
20.202667,60.57
20.208,60.49
20.213333,60.38
20.218667,60.27
20.224,60.17
20.229333,60.06
20.234667,59.96
20.24,59.85
20.245333,59.75
20.250667,59.7
20.256,59.67
20.261333,59.64
20.266667,59.68
20.272,59.61
20.277333,59.59
20.282667,59.52
20.288,59.47
20.293333,59.39
20.298667,59.37
20.304,59.37
20.309333,59.36
20.314667,59.33
20.32,59.24
20.325333,59.17
20.330667,59.16
20.336,59.18
20.341333,59.14
20.346667,59.04
20.352,58.98
20.357333,58.92
20.362667,58.86
20.368,58.81
20.373333,58.8
20.378667,58.76
20.384,58.79
20.389333,58.68
20.394667,58.6
20.4,58.56
20.405333,58.52
20.410667,58.45
20.416,58.43
20.421333,58.36
20.426667,58.32
20.432,58.28
20.437333,58.24
20.442667,58.14
20.448,58.11
20.453333,58.04
20.458667,58
20.464,57.94
20.469333,57.87
20.474667,57.85
20.48,57.83
20.485333,57.74
20.490667,57.7
20.496,57.75
20.501333,57.83
20.506667,57.93
20.512,57.97
20.517333,58.01
20.522667,58.05
20.528,58.18
20.533333,58.18
20.538667,58.16
20.544,58.09
20.549333,58.04
20.554667,57.99
20.56,57.93
20.565333,57.9
20.570667,57.94
20.576,57.98
20.581333,58.02
20.586667,58.1
20.592,58.11
20.597333,58.28
20.602667,58.38
20.608,58.42
20.613333,58.48
20.618667,58.6
20.624,58.72
20.629333,58.82
20.634667,58.89
20.64,59.05
20.645333,59.06
20.650667,59.1
20.656,59.2
20.661333,59.22
20.666667,59.42
20.672,59.63
20.677333,59.8
20.682667,59.88
20.688,60.06
20.693333,60.14
20.698667,60.26
20.704,60.29
20.709333,60.27
20.714667,60.24
20.72,60.25
20.725333,60.29
20.730667,60.25
20.736,60.26
20.741333,60.27
20.746667,60.24
20.752,60.22
20.757333,60.36
20.762667,60.28
20.768,60.31
20.773333,60.34
20.778667,60.3
20.784,60.26
20.789333,60.27
20.794667,60.26
20.8,60.22
20.805333,60.28
20.810667,60.31
20.816,60.32
20.821333,60.31
20.826667,60.37
20.832,60.42
20.837333,60.58
20.842667,61.04
20.848,61.25
20.853333,61.39
20.858667,61.59
20.864,61.79
20.869333,61.86
20.874667,61.95
20.88,61.98
20.885333,61.89
20.890667,61.8
20.896,61.71
20.901333,61.58
20.906667,61.49
20.912,61.38
20.917333,61.26
20.922667,61.18
20.928,61.09
20.933333,61.07
20.938667,60.99
20.944,60.94
20.949333,60.86
20.954667,60.77
20.96,60.71
20.965333,60.67
20.970667,60.59
20.976,60.52
20.981333,60.48
20.986667,60.45
20.992,60.4
20.997333,60.35
21.002667,60.38
21.008,60.33
21.013333,60.29
21.018667,60.29
21.024,60.36
21.029333,60.34
21.034667,60.32
21.04,60.29
21.045333,60.23
21.050667,60.22
21.056,60.13
21.061333,60.13
21.066667,60.04
21.072,60.06
21.077333,59.94
21.082667,59.91
21.088,59.85
21.093333,59.76
21.098667,59.65
21.104,59.58
21.109333,59.53
21.114667,59.44
21.12,59.39
21.125333,59.38
21.130667,59.31
21.136,59.26
21.141333,59.22
21.146667,59.17
21.152,59.12
21.157333,59.12
21.162667,59.15
21.168,59.07
21.173333,59
21.178667,59.02
21.184,59.12
21.189333,59.13
21.194667,59.12
21.2,59.08
21.205333,59.05
21.210667,59.01
21.216,58.98
21.221333,58.94
21.226667,58.9
21.232,58.87
21.237333,58.87
21.242667,58.86
21.248,58.87
21.253333,58.79
21.258667,58.81
21.264,58.79
21.269333,58.8
21.274667,58.81
21.28,58.83
21.285333,58.8
21.290667,58.78
21.296,58.86
21.301333,58.87
21.306667,58.85
21.312,58.86
21.317333,58.87
21.322667,58.82
21.328,58.79
21.333333,58.81
21.338667,58.79
21.344,58.78
21.349333,58.73
21.354667,58.7
21.36,58.83
21.365333,59.05
21.370667,59.11
21.376,59.13
21.381333,59.18
21.386667,59.26
21.392,59.33
21.397333,59.34
21.402667,59.36
21.408,59.35
21.413333,59.5
21.418667,59.71
21.424,60.07
21.429333,60.58
21.434667,60.89
21.44,61.29
21.445333,61.43
21.450667,61.45
21.456,61.45
21.461333,61.43
21.466667,61.45
21.472,61.45
21.477333,61.49
21.482667,61.52
21.488,61.49
21.493333,61.51
21.498667,61.63
21.504,61.67
21.509333,61.69
21.514667,61.66
21.52,61.79
21.525333,61.76
21.530667,61.73
21.536,61.72
21.541333,61.77
21.546667,61.74
21.552,61.7
21.557333,61.71
21.562667,61.64
21.568,61.64
21.573333,61.61
21.578667,61.54
21.584,61.45
21.589333,61.45
21.594667,61.43
21.6,61.34
21.605333,61.32
21.610667,61.3
21.616,61.31
21.621333,61.31
21.626667,61.31
21.632,61.39
21.637333,61.42
21.642667,61.39
21.648,61.39
21.653333,61.35
21.658667,61.33
21.664,61.31
21.669333,61.36
21.674667,61.33
21.68,61.31
21.685333,61.38
21.690667,61.34
21.696,61.41
21.701333,61.49
21.706667,61.55
21.712,61.62
21.717333,61.71
21.722667,61.82
21.728,61.97
21.733333,62.11
21.738667,62.06
21.744,62.06
21.749333,62.12
21.754667,62.05
21.76,62.01
21.765333,61.98
21.770667,61.94
21.776,61.87
21.781333,61.86
21.786667,61.92
21.792,61.97
21.797333,62.01
21.802667,62.1
21.808,62.3
21.813333,62.59
21.818667,63.02
21.824,63.45
21.829333,63.45
21.834667,63.44
21.84,63.49
21.845333,63.39
21.850667,63.4
21.856,63.37
21.861333,63.35
21.866667,63.3
21.872,63.22
21.877333,63.21
21.882667,63.12
21.888,63.05
21.893333,62.98
21.898667,63
21.904,62.96
21.909333,62.93
21.914667,62.96
21.92,62.95
21.925333,63.08
21.930667,63.15
21.936,63.22
21.941333,63.43
21.946667,63.62
21.952,63.77
21.957333,63.99
21.962667,64.06
21.968,64.13
21.973333,64.3
21.978667,64.44
21.984,64.55
21.989333,64.44
21.994667,64.36
22,64.34
22.005333,64.31
22.010667,64.24
22.016,64.26
22.021333,64.22
22.026667,64.26
22.032,64.21
22.037333,64.16
22.042667,64.16
22.048,64.15
22.053333,64.18
22.058667,64.17
22.064,64.11
22.069333,64.11
22.074667,64.27
22.08,64.3
22.085333,64.27
22.090667,64.25
22.096,64.23
22.101333,64.25
22.106667,64.25
22.112,64.3
22.117333,64.34
22.122667,64.38
22.128,64.42
22.133333,64.39
22.138667,64.38
22.144,64.36
22.149333,64.37
22.154667,64.34
22.16,64.36
22.165333,64.4
22.170667,64.37
22.176,64.44
22.181333,64.51
22.186667,64.51
22.192,64.49
22.197333,64.52
22.202667,64.53
22.208,64.51
22.213333,64.46
22.218667,64.39
22.224,64.38
22.229333,64.41
22.234667,64.46
22.24,64.4
22.245333,64.37
22.250667,64.33
22.256,64.31
22.261333,64.3
22.266667,64.32
22.272,64.3
22.277333,64.35
22.282667,64.29
22.288,64.25
22.293333,64.31
22.298667,64.35
22.304,64.34
22.309333,64.35
22.314667,64.37
22.32,64.38
22.325333,64.38
22.330667,64.33
22.336,64.26
22.341333,64.24
22.346667,64.19
22.352,64.14
22.357333,64.09
22.362667,64.06
22.368,64.03
22.373333,63.98
22.378667,63.98
22.384,64.02
22.389333,64.12
22.394667,64.12
22.4,64.11
22.405333,64.05
22.410667,64.13
22.416,64.15
22.421333,64.15
22.426667,64.13
22.432,64.1
22.437333,64.18
22.442667,64.19
22.448,64.28
22.453333,64.21
22.458667,64.27
22.464,64.24
22.469333,64.28
22.474667,64.23
22.48,64.3
22.485333,64.46
22.490667,64.47
22.496,64.55
22.501333,64.64
22.506667,64.75
22.512,64.84
22.517333,64.8
22.522667,64.73
22.528,64.8
22.533333,64.82
22.538667,64.83
22.544,64.9
22.549333,64.92
22.554667,64.91
22.56,64.87
22.565333,64.83
22.570667,64.97
22.576,64.94
22.581333,64.95
22.586667,64.95
22.592,64.93
22.597333,64.98
22.602667,65.13
22.608,65.09
22.613333,65.1
22.618667,65.09
22.624,65.06
22.629333,65.07
22.634667,65.19
22.64,65.25
22.645333,65.24
22.650667,65.21
22.656,65.1
22.661333,65.07
22.666667,65.19
22.672,65.12
22.677333,65.07
22.682667,64.96
22.688,65.03
22.693333,64.94
22.698667,64.96
22.704,64.96
22.709333,64.97
22.714667,64.97
22.72,65.07
22.725333,65.03
22.730667,65.02
22.736,65.08
22.741333,65.02
22.746667,65.15
22.752,65.3
22.757333,65.33
22.762667,65.27
22.768,65.27
22.773333,65.24
22.778667,65.34
22.784,65.36
22.789333,65.41
22.794667,65.46
22.8,65.51
22.805333,65.52
22.810667,65.49
22.816,65.57
22.821333,65.67
22.826667,65.76
22.832,65.72
22.837333,65.67
22.842667,65.66
22.848,65.62
22.853333,65.68
22.858667,65.69
22.864,65.66
22.869333,65.65
22.874667,65.63
22.88,65.75
22.885333,65.94
22.890667,66.02
22.896,66.06
22.901333,66.21
22.906667,66.3
22.912,66.27
22.917333,66.25
22.922667,66.25
22.928,66.23
22.933333,66.26
22.938667,66.33
22.944,66.32
22.949333,66.41
22.954667,66.4
22.96,66.38
22.965333,66.47
22.970667,66.43
22.976,66.38
22.981333,66.35
22.986667,66.35
22.992,66.36
22.997333,66.37
23.002667,66.62
23.008,66.59
23.013333,66.49
23.018667,66.58
23.024,66.69
23.029333,66.83
23.034667,66.94
23.04,67.11
23.045333,67.11
23.050667,67.27
23.056,67.51
23.061333,67.51
23.066667,67.6
23.072,67.65
23.077333,67.66
23.082667,67.69
23.088,67.76
23.093333,67.78
23.098667,67.82
23.104,67.86
23.109333,67.89
23.114667,67.85
23.12,67.78
23.125333,67.69
23.130667,67.68
23.136,67.61
23.141333,67.56
23.146667,67.54
23.152,67.5
23.157333,67.51
23.162667,67.46
23.168,67.39
23.173333,67.31
23.178667,67.24
23.184,67.23
23.189333,67.2
23.194667,67.13
23.2,67.07
23.205333,67.01
23.210667,66.94
23.216,66.97
23.221333,66.96
23.226667,66.92
23.232,66.89
23.237333,66.97
23.242667,67.02
23.248,67.05
23.253333,67.06
23.258667,67.06
23.264,67.01
23.269333,66.94
23.274667,66.9
23.28,66.82
23.285333,66.8
23.290667,66.82
23.296,66.8
23.301333,66.77
23.306667,66.78
23.312,66.74
23.317333,66.71
23.322667,66.67
23.328,66.7
23.333333,66.73
23.338667,66.7
23.344,66.64
23.349333,66.62
23.354667,66.59
23.36,66.54
23.365333,66.49
23.370667,66.51
23.376,66.47
23.381333,66.42
23.386667,66.37
23.392,66.4
23.397333,66.35
23.402667,66.32
23.408,66.35
23.413333,66.36
23.418667,66.33
23.424,66.37
23.429333,66.4
23.434667,66.37
23.44,66.39
23.445333,66.42
23.450667,66.43
23.456,66.47
23.461333,66.54
23.466667,66.54
23.472,66.75
23.477333,66.83
23.482667,66.78
23.488,66.77
23.493333,66.72
23.498667,66.69
23.504,66.68
23.509333,66.69
23.514667,66.66
23.52,66.7
23.525333,66.67
23.530667,66.66
23.536,66.59
23.541333,66.62
23.546667,66.55
23.552,66.5
23.557333,66.52
23.562667,66.46
23.568,66.44
23.573333,66.39
23.578667,66.34
23.584,66.27
23.589333,66.31
23.594667,66.3
23.6,66.19
23.605333,66.09
23.610667,66.05
23.616,66.04
23.621333,65.96
23.626667,65.85
23.632,65.78
23.637333,65.74
23.642667,65.7
23.648,65.68
23.653333,65.59
23.658667,65.51
23.664,65.46
23.669333,65.43
23.674667,65.41
23.68,65.36
23.685333,65.3
23.690667,65.25
23.696,65.3
23.701333,65.23
23.706667,65.14
23.712,65.13
23.717333,65.1
23.722667,65.13
23.728,65.14
23.733333,65.2
23.738667,65.23
23.744,65.29
23.749333,65.3
23.754667,65.39
23.76,65.52
23.765333,65.5
23.770667,65.52
23.776,65.49
23.781333,65.49
23.786667,65.68
23.792,65.72
23.797333,65.81
23.802667,65.91
23.808,65.91
23.813333,65.97
23.818667,66.02
23.824,65.97
23.829333,65.93
23.834667,65.95
23.84,66.01
23.845333,66.07
23.850667,66.08
23.856,66.28
23.861333,66.42
23.866667,66.59
23.872,66.56
23.877333,66.51
23.882667,66.59
23.888,66.57
23.893333,66.59
23.898667,66.6
23.904,66.59
23.909333,66.69
23.914667,66.71
23.92,66.81
23.925333,66.9
23.930667,66.88
23.936,66.97
23.941333,67.01
23.946667,67
23.952,67.07
23.957333,67.13
23.962667,67.19
23.968,67.2
23.973333,67.23
23.978667,67.22
23.984,67.26
23.989333,67.3
23.994667,67.21
24,67.16
24.005333,67.21
24.010667,67.17
24.016,67.21
24.021333,67.24
24.026667,67.2
24.032,67.17
24.037333,67.13
24.042667,67.14
24.048,67.14
24.053333,67.1
24.058667,67.05
24.064,67.09
24.069333,67.11
24.074667,67.08
24.08,67.03
24.085333,66.95
24.090667,66.96
24.096,66.9
24.101333,66.8
24.106667,66.76
24.112,66.73
24.117333,66.65
24.122667,66.65
24.128,66.62
24.133333,66.62
24.138667,66.52
24.144,66.46
24.149333,66.43
24.154667,66.39
24.16,66.32
24.165333,66.22
24.170667,66.2
24.176,66.14
24.181333,66.11
24.186667,66.02
24.192,65.95
24.197333,66.05
24.202667,66.03
24.208,65.98
24.213333,65.92
24.218667,65.93
24.224,65.85
24.229333,65.77
24.234667,65.81
24.24,65.81
24.245333,65.83
24.250667,65.83
24.256,65.77
24.261333,65.75
24.266667,65.72
24.272,65.68
24.277333,65.69
24.282667,65.68
24.288,65.67
24.293333,65.69
24.298667,65.7
24.304,65.75
24.309333,65.85
24.314667,65.94
24.32,65.9
24.325333,65.94
24.330667,66
24.336,66
24.341333,66.06
24.346667,66.09
24.352,66.1
24.357333,66.07
24.362667,66.13
24.368,66.15
24.373333,66.08
24.378667,66.05
24.384,66.23
24.389333,66.17
24.394667,66.1
24.4,66.08
24.405333,66.02
24.410667,66.05
24.416,65.98
24.421333,65.9
24.426667,65.89
24.432,65.92
24.437333,65.87
24.442667,65.82
24.448,65.8
24.453333,65.79
24.458667,65.79
24.464,65.78
24.469333,65.77
24.474667,65.72
24.48,65.68
24.485333,65.62
24.490667,65.57
24.496,65.55
24.501333,65.55
24.506667,65.46
24.512,65.37
24.517333,65.39
24.522667,65.36
24.528,65.34
24.533333,65.35
24.538667,65.35
24.544,65.35
24.549333,65.33
24.554667,65.29
24.56,65.31
24.565333,65.4
24.570667,65.41
24.576,65.41
24.581333,65.47
24.586667,65.59
24.592,65.68
24.597333,65.66
24.602667,65.64
24.608,65.64
24.613333,65.7
24.618667,65.74
24.624,65.76
24.629333,65.67
24.634667,65.66
24.64,65.66
24.645333,65.57
24.650667,65.47
24.656,65.48
24.661333,65.56
24.666667,65.48
24.672,65.47
24.677333,65.39
24.682667,65.34
24.688,65.29
24.693333,65.33
24.698667,65.31
24.704,65.29
24.709333,65.26
24.714667,65.3
24.72,65.24
24.725333,65.2
24.730667,65.19
24.736,65.2
24.741333,65.18
24.746667,65.1
24.752,65.16
24.757333,65.23
24.762667,65.21
24.768,65.19
24.773333,65.2
24.778667,65.26
24.784,65.34
24.789333,65.36
24.794667,65.4
24.8,65.48
24.805333,65.53
24.810667,65.57
24.816,65.61
24.821333,65.64
24.826667,65.71
24.832,65.7
24.837333,65.68
24.842667,65.61
24.848,65.59
24.853333,65.65
24.858667,65.71
24.864,65.73
24.869333,65.72
24.874667,65.74
24.88,65.71
24.885333,65.73
24.890667,65.72
24.896,65.74
24.901333,65.8
24.906667,65.82
24.912,65.89
24.917333,65.92
24.922667,65.9
24.928,65.87
24.933333,65.93
24.938667,65.9
24.944,65.85
24.949333,65.76
24.954667,65.79
24.96,65.81
24.965333,65.77
24.970667,65.74
24.976,65.68
24.981333,65.65
24.986667,65.65
24.992,65.65
24.997333,65.73
25.002667,65.73
25.008,65.75
25.013333,65.76
25.018667,65.69
25.024,65.61
25.029333,65.62
25.034667,65.58
25.04,65.56
25.045333,65.52
25.050667,65.54
25.056,65.55
25.061333,65.57
25.066667,65.59
25.072,65.71
25.077333,65.65
25.082667,65.61
25.088,65.62
25.093333,65.67
25.098667,65.62
25.104,65.57
25.109333,65.61
25.114667,65.62
25.12,65.68
25.125333,65.66
25.130667,65.61
25.136,65.55
25.141333,65.6
25.146667,65.62
25.152,65.62
25.157333,65.62
25.162667,65.64
25.168,65.73
25.173333,65.8
25.178667,65.91
25.184,65.91
25.189333,65.95
25.194667,65.92
25.2,65.9
25.205333,65.96
25.210667,65.95
25.216,65.89
25.221333,65.95
25.226667,65.98
25.232,65.93
25.237333,65.9
25.242667,65.86
25.248,65.81
25.253333,65.79
25.258667,65.78
25.264,65.75
25.269333,65.73
25.274667,65.73
25.28,65.8
25.285333,65.77
25.290667,65.73
25.296,65.66
25.301333,65.62
25.306667,65.62
25.312,65.55
25.317333,65.46
25.322667,65.43
25.328,65.38
25.333333,65.37
25.338667,65.43
25.344,65.43
25.349333,65.35
25.354667,65.34
25.36,65.3
25.365333,65.29
25.370667,65.31
25.376,65.28
25.381333,65.29
25.386667,65.26
25.392,65.22
25.397333,65.14
25.402667,65.05
25.408,65
25.413333,65.01
25.418667,64.93
25.424,64.92
25.429333,64.87
25.434667,64.84
25.44,64.75
25.445333,64.69
25.450667,64.62
25.456,64.55
25.461333,64.5
25.466667,64.46
25.472,64.48
25.477333,64.52
25.482667,64.47
25.488,64.48
25.493333,64.46
25.498667,64.43
25.504,64.36
25.509333,64.33
25.514667,64.25
25.52,64.26
25.525333,64.22
25.530667,64.11
25.536,64.04
25.541333,63.99
25.546667,63.93
25.552,63.89
25.557333,63.89
25.562667,63.85
25.568,63.78
25.573333,63.73
25.578667,63.67
25.584,63.62
25.589333,63.57
25.594667,63.56
25.6,63.5
25.605333,63.49
25.610667,63.5
25.616,63.48
25.621333,63.44
25.626667,63.38
25.632,63.37
25.637333,63.32
25.642667,63.36
25.648,63.32
25.653333,63.31
25.658667,63.28
25.664,63.28
25.669333,63.21
25.674667,63.13
25.68,63.14
25.685333,63.11
25.690667,63.15
25.696,63.11
25.701333,63.07
25.706667,63
25.712,62.96
25.717333,62.94
25.722667,62.87
25.728,62.87
25.733333,62.81
25.738667,62.73
25.744,62.63
25.749333,62.6
25.754667,62.52
25.76,62.46
25.765333,62.46
25.770667,62.49
25.776,62.4
25.781333,62.39
25.786667,62.3
25.792,62.29
25.797333,62.34
25.802667,62.35
25.808,62.31
25.813333,62.3
25.818667,62.26
25.824,62.27
25.829333,62.26
25.834667,62.32
25.84,62.27
25.845333,62.26
25.850667,62.26
25.856,62.25
25.861333,62.27
25.866667,62.16
25.872,62.08
25.877333,62.12
25.882667,62.12
25.888,62.06
25.893333,62.04
25.898667,61.98
25.904,62.05
25.909333,62
25.914667,61.97
25.92,62.01
25.925333,62.04
25.930667,62.13
25.936,62.12
25.941333,62.06
25.946667,62.11
25.952,62.1
25.957333,62.11
25.962667,62.13
25.968,62.11
25.973333,62.08
25.978667,62.06
25.984,62.06
25.989333,61.99
25.994667,62
26,61.97
26.005333,61.96
26.010667,61.93
26.016,61.92
26.021333,61.94
26.026667,61.92
26.032,61.87
26.037333,61.88
26.042667,61.88
26.048,61.91
26.053333,61.82
26.058667,61.82
26.064,61.84
26.069333,61.75
26.074667,61.72
26.08,61.75
26.085333,61.82
26.090667,61.85
26.096,61.88
26.101333,61.92
26.106667,61.92
26.112,61.91
26.117333,61.96
26.122667,62.01
26.128,62
26.133333,61.96
26.138667,61.98
26.144,61.96
26.149333,61.98
26.154667,62.03
26.16,62.06
26.165333,62.06
26.170667,62.02
26.176,62.02
26.181333,61.99
26.186667,61.97
26.192,61.99
26.197333,61.95
26.202667,61.86
26.208,61.86
26.213333,61.92
26.218667,61.92
26.224,61.91
26.229333,61.94
26.234667,61.89
26.24,62.01
26.245333,62.01
26.250667,62.02
26.256,61.97
26.261333,61.92
26.266667,61.84
26.272,61.84
26.277333,61.84
26.282667,61.81
26.288,61.78
26.293333,61.8
26.298667,61.77
26.304,61.74
26.309333,61.7
26.314667,61.67
26.32,61.61
26.325333,61.68
26.330667,61.69
26.336,61.7
26.341333,61.7
26.346667,61.67
26.352,61.65
26.357333,61.67
26.362667,61.68
26.368,61.78
26.373333,61.79
26.378667,61.78
26.384,61.79
26.389333,61.77
26.394667,61.66
26.4,61.62
26.405333,61.62
26.410667,61.63
26.416,61.61
26.421333,61.56
26.426667,61.6
26.432,61.58
26.437333,61.57
26.442667,61.67
26.448,61.75
26.453333,61.76
26.458667,61.76
26.464,61.8
26.469333,61.82
26.474667,61.77
26.48,61.69
26.485333,61.64
26.490667,61.61
26.496,61.54
26.501333,61.57
26.506667,61.56
26.512,61.66
26.517333,61.59
26.522667,61.59
26.528,61.64
26.533333,61.69
26.538667,61.76
26.544,61.71
26.549333,61.67
26.554667,61.67
26.56,61.69
26.565333,61.72
26.570667,61.74
26.576,61.73
26.581333,61.7
26.586667,61.68
26.592,61.82
26.597333,61.76
26.602667,61.77
26.608,61.75
26.613333,61.79
26.618667,61.85
26.624,61.88
26.629333,61.88
26.634667,61.89
26.64,61.82
26.645333,61.8
26.650667,61.82
26.656,61.81
26.661333,61.82
26.666667,61.82
26.672,61.8
26.677333,61.78
26.682667,61.87
26.688,61.92
26.693333,62.02
26.698667,62.03
26.704,62.04
26.709333,62.02
26.714667,62
26.72,62.01
26.725333,61.93
26.730667,61.93
26.736,61.87
26.741333,61.84
26.746667,61.84
26.752,61.89
26.757333,61.9
26.762667,61.87
26.768,61.83
26.773333,61.78
26.778667,61.8
26.784,61.77
26.789333,61.74
26.794667,61.68
26.8,61.64
26.805333,61.63
26.810667,61.58
26.816,61.72
26.821333,61.75
26.826667,61.85
26.832,61.83
26.837333,61.86
26.842667,61.82
26.848,61.81
26.853333,61.87
26.858667,61.93
26.864,61.94
26.869333,61.88
26.874667,61.87
26.88,62.02
26.885333,62.02
26.890667,62.03
26.896,62.02
26.901333,62.06
26.906667,62.04
26.912,62.05
26.917333,62.06
26.922667,62.15
26.928,62.14
26.933333,62.15
26.938667,62.12
26.944,62.08
26.949333,62.05
26.954667,62.04
26.96,62.08
26.965333,62.08
26.970667,62.1
26.976,62.06
26.981333,61.99
26.986667,61.99
26.992,61.99
26.997333,61.93
27.002667,61.91
27.008,61.87
27.013333,61.93
27.018667,61.94
27.024,61.9
27.029333,61.88
27.034667,61.85
27.04,61.85
27.045333,61.83
27.050667,61.77
27.056,61.76
27.061333,61.7
27.066667,61.67
27.072,61.6
27.077333,61.6
27.082667,61.51
27.088,61.53
27.093333,61.53
27.098667,61.54
27.104,61.51
27.109333,61.46
27.114667,61.5
27.12,61.57
27.125333,61.65
27.130667,61.62
27.136,61.61
27.141333,61.56
27.146667,61.5
27.152,61.44
27.157333,61.48
27.162667,61.52
27.168,61.54
27.173333,61.58
27.178667,61.62
27.184,61.61
27.189333,61.54
27.194667,61.5
27.2,61.47
27.205333,61.45
27.210667,61.6
27.216,61.61
27.221333,61.62
27.226667,61.58
27.232,61.6
27.237333,61.59
27.242667,61.63
27.248,61.65
27.253333,61.63
27.258667,61.66
27.264,61.64
27.269333,61.62
27.274667,61.55
27.28,61.54
27.285333,61.54
27.290667,61.53
27.296,61.53
27.301333,61.5
27.306667,61.49
27.312,61.46
27.317333,61.46
27.322667,61.5
27.328,61.59
27.333333,61.65
27.338667,61.6
27.344,61.61
27.349333,61.55
27.354667,61.59
27.36,61.57
27.365333,61.65
27.370667,61.63
27.376,61.63
27.381333,61.61
27.386667,61.63
27.392,61.72
27.397333,61.73
27.402667,61.76
27.408,61.74
27.413333,61.66
27.418667,61.75
27.424,61.79
27.429333,61.84
27.434667,61.93
27.44,61.96
27.445333,62
27.450667,61.98
27.456,62.05
27.461333,62.08
27.466667,62.02
27.472,62.08
27.477333,62.12
27.482667,62.22
27.488,62.19
27.493333,62.16
27.498667,62.28
27.504,62.39
27.509333,62.34
27.514667,62.3
27.52,62.31
27.525333,62.33
27.530667,62.39
27.536,62.41
27.541333,62.44
27.546667,62.5
27.552,62.49
27.557333,62.52
27.562667,62.59
27.568,62.65
27.573333,62.72
27.578667,62.7
27.584,62.73
27.589333,62.7
27.594667,62.7
27.6,62.67
27.605333,62.62
27.610667,62.6
27.616,62.64
27.621333,62.59
27.626667,62.54
27.632,62.54
27.637333,62.5
27.642667,62.48
27.648,62.44
27.653333,62.36
27.658667,62.33
27.664,62.34
27.669333,62.35
27.674667,62.31
27.68,62.23
27.685333,62.18
27.690667,62.13
27.696,62.14
27.701333,62.15
27.706667,62.14
27.712,62.15
27.717333,62.22
27.722667,62.2
27.728,62.16
27.733333,62.14
27.738667,62.14
27.744,62.06
27.749333,62.01
27.754667,62.01
27.76,62.06
27.765333,62.02
27.770667,62.03
27.776,61.99
27.781333,62
27.786667,62.02
27.792,62.02
27.797333,62.06
27.802667,62.12
27.808,62.11
27.813333,62.07
27.818667,62.11
27.824,62.12
27.829333,62.14
27.834667,62.13
27.84,62.15
27.845333,62.22
27.850667,62.23
27.856,62.21
27.861333,62.12
27.866667,62.1
27.872,62.21
27.877333,62.23
27.882667,62.19
27.888,62.19
27.893333,62.13
27.898667,62.09
27.904,62.04
27.909333,62.06
27.914667,62.09
27.92,62.1
27.925333,62.09
27.930667,62.07
27.936,62.05
27.941333,62.05
27.946667,62.06
27.952,62.04
27.957333,62.04
27.962667,62.03
27.968,61.96
27.973333,62.02
27.978667,61.98
27.984,61.99
27.989333,62
27.994667,61.97
28,61.95
28.005333,61.91
28.010667,61.91
28.016,61.87
28.021333,61.9
28.026667,61.93
28.032,61.89
28.037333,61.92
28.042667,61.91
28.048,61.95
28.053333,62
28.058667,61.95
28.064,61.9
28.069333,61.93
28.074667,61.9
28.08,61.82
28.085333,61.78
28.090667,61.79
28.096,61.75
28.101333,61.75
28.106667,61.73
28.112,61.71
28.117333,61.71
28.122667,61.73
28.128,61.73
28.133333,61.72
28.138667,61.77
28.144,61.74
28.149333,61.82
28.154667,61.74
28.16,61.71
28.165333,61.69
28.170667,61.67
28.176,61.63
28.181333,61.6
28.186667,61.56
28.192,61.55
28.197333,61.52
28.202667,61.51
28.208,61.53
28.213333,61.51
28.218667,61.45
28.224,61.43
28.229333,61.4
28.234667,61.51
28.24,61.45
28.245333,61.51
28.250667,61.52
28.256,61.55
28.261333,61.6
28.266667,61.64
28.272,61.64
28.277333,61.6
28.282667,61.55
28.288,61.55
28.293333,61.53
28.298667,61.57
28.304,61.63
28.309333,61.82
28.314667,61.84
28.32,61.93
28.325333,62.01
28.330667,62.05
28.336,62.11
28.341333,62.13
28.346667,62.11
28.352,62.11
28.357333,62.1
28.362667,62.17
28.368,62.19
28.373333,62.18
28.378667,62.08
28.384,62.11
28.389333,62.13
28.394667,62.05
28.4,62.09
28.405333,62.05
28.410667,62.03
28.416,62.07
28.421333,62.08
28.426667,62.01
28.432,62.08
28.437333,62.05
28.442667,62.05
28.448,62.09
28.453333,62.12
28.458667,62.07
28.464,62.05
28.469333,62.06
28.474667,62.19
28.48,62.22
28.485333,62.22
28.490667,62.17
28.496,62.08
28.501333,62.04
28.506667,62.07
28.512,62.14
28.517333,62.22
28.522667,62.2
28.528,62.24
28.533333,62.29
28.538667,62.53
28.544,62.72
28.549333,62.83
28.554667,63.02
28.56,63.25
28.565333,63.36
28.570667,63.48
28.576,63.54
28.581333,63.75
28.586667,64
28.592,64.44
28.597333,64.6
28.602667,64.62
28.608,64.55
28.613333,64.48
28.618667,64.37
28.624,64.3
28.629333,64.26
28.634667,64.22
28.64,64.16
28.645333,64.07
28.650667,64.01
28.656,63.95
28.661333,63.91
28.666667,63.88
28.672,64.34
28.677333,64.62
28.682667,65.16
28.688,65.55
28.693333,65.97
28.698667,66.59
28.704,67.11
28.709333,67.5
28.714667,67.78
28.72,67.97
28.725333,68.18
28.730667,68.3
28.736,68.42
28.741333,68.46
28.746667,68.46
28.752,68.45
28.757333,68.44
28.762667,68.38
28.768,68.34
28.773333,68.27
28.778667,68.18
28.784,68.14
28.789333,68.08
28.794667,67.96
28.8,67.87
28.805333,67.79
28.810667,67.66
28.816,67.58
28.821333,67.48
28.826667,67.4
28.832,67.36
28.837333,67.35
28.842667,67.32
28.848,67.28
28.853333,67.24
28.858667,67.13
28.864,67.06
28.869333,67.01
28.874667,66.92
28.88,66.87
28.885333,66.77
28.890667,66.69
28.896,66.66
28.901333,66.64
28.906667,66.71
28.912,66.67
28.917333,66.68
28.922667,66.68
28.928,66.65
28.933333,66.57
28.938667,66.54
28.944,66.53
28.949333,66.46
28.954667,66.38
28.96,66.29
28.965333,66.27
28.970667,66.24
28.976,66.19
28.981333,66.19
28.986667,66.45
28.992,66.57
28.997333,66.62
29.002667,67.2
29.008,67.25
29.013333,67.27
29.018667,67.32
29.024,67.38
29.029333,67.42
29.034667,67.38
29.04,67.28
29.045333,67.15
29.050667,67.06
29.056,66.96
29.061333,66.83
29.066667,66.73
29.072,66.64
29.077333,66.51
29.082667,66.38
29.088,66.3
29.093333,66.22
29.098667,66.19
29.104,66.17
29.109333,66.18
29.114667,66.15
29.12,66.1
29.125333,66.03
29.130667,66.02
29.136,66.04
29.141333,66.03
29.146667,66.16
29.152,66.28
29.157333,66.29
29.162667,66.29
29.168,66.24
29.173333,66.18
29.178667,66.08
29.184,66
29.189333,65.97
29.194667,65.94
29.2,65.91
29.205333,65.87
29.210667,65.79
29.216,65.73
29.221333,65.66
29.226667,65.59
29.232,65.61
29.237333,65.57
29.242667,65.55
29.248,65.53
29.253333,65.46
29.258667,65.38
29.264,65.31
29.269333,65.19
29.274667,65.08
29.28,64.98
29.285333,64.9
29.290667,64.81
29.296,64.71
29.301333,64.65
29.306667,64.63
29.312,64.57
29.317333,64.52
29.322667,64.47
29.328,64.39
29.333333,64.28
29.338667,64.27
29.344,64.23
29.349333,64.17
29.354667,64.14
29.36,64.05
29.365333,63.95
29.370667,63.88
29.376,63.79
29.381333,63.7
29.386667,63.69
29.392,63.66
29.397333,63.65
29.402667,63.63
29.408,63.55
29.413333,63.48
29.418667,63.42
29.424,63.4
29.429333,63.4
29.434667,63.34
29.44,63.27
29.445333,63.27
29.450667,63.23
29.456,63.29
29.461333,63.3
29.466667,63.26
29.472,63.22
29.477333,63.17
29.482667,63.14
29.488,63.07
29.493333,63
29.498667,62.97
29.504,62.93
29.509333,62.87
29.514667,62.9
29.52,62.86
29.525333,62.82
29.530667,62.74
29.536,62.65
29.541333,62.6
29.546667,62.53
29.552,62.48
29.557333,62.42
29.562667,62.35
29.568,62.3
29.573333,62.23
29.578667,62.16
29.584,62.12
29.589333,62.07
29.594667,62.03
29.6,62.01
29.605333,61.96
29.610667,61.94
29.616,61.9
29.621333,61.88
29.626667,61.86
29.632,61.82
29.637333,61.83
29.642667,61.87
29.648,61.88
29.653333,61.92
29.658667,61.98
29.664,61.98
29.669333,62.07
29.674667,62.09
29.68,62.18
29.685333,62.24
29.690667,62.25
29.696,62.37
29.701333,62.33
29.706667,62.35
29.712,62.53
29.717333,62.56
29.722667,62.64
29.728,62.7
29.733333,62.74
29.738667,62.69
29.744,62.71
29.749333,62.74
29.754667,62.72
29.76,62.77
29.765333,62.73
29.770667,62.73
29.776,62.71
29.781333,62.68
29.786667,62.64
29.792,62.6
29.797333,62.6
29.802667,62.58
29.808,62.59
29.813333,62.57
29.818667,62.6
29.824,62.54
29.829333,62.47
29.834667,62.4
29.84,62.32
29.845333,62.34
29.850667,62.3
29.856,62.28
29.861333,62.31
29.866667,62.33
29.872,62.33
29.877333,62.27
29.882667,62.28
29.888,62.28
29.893333,62.21
29.898667,62.17
29.904,62.15
29.909333,62.11
29.914667,62.07
29.92,62.02
29.925333,62.02
29.930667,62.03
29.936,62.06
29.941333,62
29.946667,61.98
29.952,61.9
29.957333,61.86
29.962667,61.87
29.968,61.9
29.973333,61.9
29.978667,61.9
29.984,61.83
29.989333,61.8
29.994667,61.76
30,61.73
30.005333,61.66
30.010667,61.59
30.016,61.65
30.021333,61.66
30.026667,61.66
30.032,61.58
30.037333,61.67
30.042667,61.72
30.048,61.83
30.053333,61.75
30.058667,61.81
30.064,61.76
30.069333,61.81
30.074667,61.82
30.08,61.78
30.085333,61.78
30.090667,61.77
30.096,61.72
30.101333,61.66
30.106667,61.6
30.112,61.6
30.117333,61.57
30.122667,61.63
30.128,61.58
30.133333,61.55
30.138667,61.47
30.144,61.43
30.149333,61.43
30.154667,61.43
30.16,61.6
30.165333,61.82
30.170667,61.98
30.176,62.11
30.181333,62.15
30.186667,62.24
30.192,62.35
30.197333,62.34
30.202667,62.29
30.208,62.38
30.213333,62.39
30.218667,62.48
30.224,62.53
30.229333,62.57
30.234667,62.61
30.24,62.63
30.245333,62.66
30.250667,62.77
30.256,62.79
30.261333,62.78
30.266667,62.73
30.272,62.66
30.277333,62.59
30.282667,62.57
30.288,62.51
30.293333,62.44
30.298667,62.4
30.304,62.35
30.309333,62.33
30.314667,62.28
30.32,62.34
30.325333,62.3
30.330667,62.25
30.336,62.22
30.341333,62.24
30.346667,62.26
30.352,62.39
30.357333,62.45
30.362667,62.42
30.368,62.54
30.373333,62.58
30.378667,62.53
30.384,62.52
30.389333,62.5
30.394667,62.58
30.4,62.53
30.405333,62.72
30.410667,62.71
30.416,62.79
30.421333,62.83
30.426667,62.82
30.432,62.9
30.437333,62.92
30.442667,62.94
30.448,62.97
30.453333,62.94
30.458667,62.92
30.464,63.05
30.469333,63.09
30.474667,63.08
30.48,63.13
30.485333,63.1
30.490667,63.12
30.496,63.05
30.501333,63.04
30.506667,63.05
30.512,63.12
30.517333,63.18
30.522667,63.24
30.528,63.19
30.533333,63.19
30.538667,63.24
30.544,63.25
30.549333,63.29
30.554667,63.35
30.56,63.38
30.565333,63.42
30.570667,63.42
30.576,63.34
30.581333,63.31
30.586667,63.26
30.592,63.24
30.597333,63.23
30.602667,63.19
30.608,63.17
30.613333,63.15
30.618667,63.11
30.624,63.17
30.629333,63.16
30.634667,63.18
30.64,63.26
30.645333,63.31
30.650667,63.36
30.656,63.32
30.661333,63.37
30.666667,63.3
30.672,63.29
30.677333,63.26
30.682667,63.29
30.688,63.3
30.693333,63.2
30.698667,63.14
30.704,63.13
30.709333,63.08
30.714667,63.1
30.72,63.08
30.725333,63.07
30.730667,63.03
30.736,63.06
30.741333,63.09
30.746667,63.04
30.752,63
30.757333,62.99
30.762667,63.05
30.768,63.03
30.773333,63
30.778667,62.97
30.784,62.97
30.789333,62.87
30.794667,62.87
30.8,62.85
30.805333,62.84
30.810667,62.86
30.816,62.85
30.821333,62.86
30.826667,62.87
30.832,62.83
30.837333,62.75
30.842667,62.7
30.848,62.7
30.853333,62.69
30.858667,62.77
30.864,62.87
30.869333,62.94
30.874667,63.08
30.88,63.18
30.885333,63.18
30.890667,63.25
30.896,63.23
30.901333,63.52
30.906667,63.68
30.912,63.84
30.917333,64.05
30.922667,64.07
30.928,64.11
30.933333,64.09
30.938667,64.11
30.944,64.14
30.949333,64.12
30.954667,64.1
30.96,64.02
30.965333,63.94
30.970667,63.92
30.976,63.88
30.981333,63.87
30.986667,63.84
30.992,63.78
30.997333,63.81
31.002667,63.83
31.008,63.84
31.013333,63.91
31.018667,64.07
31.024,64.16
31.029333,64.28
31.034667,64.38
31.04,64.51
31.045333,64.58
31.050667,64.63
31.056,64.62
31.061333,64.68
31.066667,64.67
31.072,64.64
31.077333,64.65
31.082667,64.6
31.088,64.62
31.093333,64.66
31.098667,64.65
31.104,64.67
31.109333,64.67
31.114667,64.61
31.12,64.67
31.125333,64.63
31.130667,64.65
31.136,64.9
31.141333,65.1
31.146667,65.38
31.152,65.57
31.157333,65.89
31.162667,66.12
31.168,66.33
31.173333,66.58
31.178667,66.71
31.184,66.88
31.189333,67.05
31.194667,67.22
31.2,67.39
31.205333,67.44
31.210667,67.52
31.216,67.57
31.221333,67.57
31.226667,67.57
31.232,67.5
31.237333,67.45
31.242667,67.41
31.248,67.36
31.253333,67.4
31.258667,67.37
31.264,67.36
31.269333,67.34
31.274667,67.24
31.28,67.19
31.285333,67.12
31.290667,67.02
31.296,66.93
31.301333,66.83
31.306667,66.72
31.312,66.62
31.317333,66.56
31.322667,66.49
31.328,66.39
31.333333,66.28
31.338667,66.19
31.344,66.1
31.349333,66.01
31.354667,65.92
31.36,65.8
31.365333,65.69
31.370667,65.61
31.376,65.52
31.381333,65.42
31.386667,65.36
31.392,65.26
31.397333,65.13
31.402667,65.06
31.408,64.97
31.413333,64.92
31.418667,64.88
31.424,64.86
31.429333,64.93
31.434667,65.02
31.44,65.12
31.445333,65.2
31.450667,65.31
31.456,65.47
31.461333,65.47
31.466667,65.44
31.472,65.49
31.477333,65.55
31.482667,65.54
31.488,65.58
31.493333,65.55
31.498667,65.52
31.504,65.46
31.509333,65.42
31.514667,65.35
31.52,65.3
31.525333,65.31
31.530667,65.24
31.536,65.15
31.541333,65.08
31.546667,65.04
31.552,65.02
31.557333,65.03
31.562667,65.07
31.568,65.12
31.573333,65.16
31.578667,65.15
31.584,65.13
31.589333,65.06
31.594667,64.99
31.6,64.94
31.605333,64.84
31.610667,64.84
31.616,64.77
31.621333,64.72
31.626667,64.63
31.632,64.59
31.637333,64.55
31.642667,64.48
31.648,64.42
31.653333,64.4
31.658667,64.33
31.664,64.25
31.669333,64.25
31.674667,64.22
31.68,64.2
31.685333,64.18
31.690667,64.1
31.696,64.12
31.701333,64.12
31.706667,64.15
31.712,64.15
31.717333,64.14
31.722667,64.15
31.728,64.09
31.733333,64.05
31.738667,64.01
31.744,63.94
31.749333,63.98
31.754667,64.01
31.76,64.26
31.765333,64.48
31.770667,64.69
31.776,64.81
31.781333,64.97
31.786667,65.04
31.792,65.11
31.797333,65.24
31.802667,65.26
31.808,65.27
31.813333,65.32
31.818667,65.36
31.824,65.5
31.829333,65.63
31.834667,65.87
31.84,66
31.845333,66.14
31.850667,66.2
31.856,66.15
31.861333,66.1
31.866667,66.01
31.872,65.93
31.877333,65.88
31.882667,65.8
31.888,65.71
31.893333,65.65
31.898667,65.56
31.904,65.53
31.909333,65.48
31.914667,65.41
31.92,65.35
31.925333,65.34
31.930667,65.3
31.936,65.22
31.941333,65.19
31.946667,65.19
31.952,65.15
31.957333,65.1
31.962667,65.04
31.968,64.96
31.973333,64.93
31.978667,64.9
31.984,64.83
31.989333,64.79
31.994667,64.76
32,64.7
32.005333,64.7
32.010667,64.73
32.016,64.69
32.021333,64.66
32.026667,64.63
32.032,64.57
32.037333,64.49
32.042667,64.44
32.048,64.43
32.053333,64.44
32.058667,64.46
32.064,64.41
32.069333,64.4
32.074667,64.35
32.08,64.34
32.085333,64.3
32.090667,64.3
32.096,64.32
32.101333,64.28
32.106667,64.36
32.112,64.37
32.117333,64.44
32.122667,64.47
32.128,64.54
32.133333,64.52
32.138667,64.62
32.144,64.67
32.149333,64.7
32.154667,64.73
32.16,64.76
32.165333,64.8
32.170667,64.85
32.176,64.83
32.181333,64.85
32.186667,64.9
32.192,64.98
32.197333,65.08
32.202667,65.08
32.208,65.11
32.213333,65.13
32.218667,65.23
32.224,65.24
32.229333,65.23
32.234667,65.28
32.24,65.34
32.245333,65.37
32.250667,65.36
32.256,65.42
32.261333,65.44
32.266667,65.53
32.272,65.67
32.277333,65.74
32.282667,65.95
32.288,66.09
32.293333,66.19
32.298667,66.3
32.304,66.4
32.309333,66.52
32.314667,66.68
32.32,66.66
32.325333,66.66
32.330667,66.67
32.336,66.67
32.341333,66.63
32.346667,66.77
32.352,66.94
32.357333,67.02
32.362667,67.02
32.368,67.06
32.373333,67.08
32.378667,67.04
32.384,66.96
32.389333,66.94
32.394667,66.91
32.4,66.91
32.405333,66.91
32.410667,66.81
32.416,66.72
32.421333,66.71
32.426667,66.77
32.432,66.77
32.437333,66.72
32.442667,66.71
32.448,66.66
32.453333,66.6
32.458667,66.53
32.464,66.53
32.469333,66.51
32.474667,66.51
32.48,66.49
32.485333,66.49
32.490667,66.51
32.496,66.47
32.501333,66.4
32.506667,66.56
32.512,66.61
32.517333,66.65
32.522667,66.63
32.528,66.64
32.533333,66.64
32.538667,66.63
32.544,66.7
32.549333,66.67
32.554667,66.66
32.56,66.67
32.565333,66.68
32.570667,66.67
32.576,66.63
32.581333,66.66
32.586667,66.7
32.592,66.72
32.597333,66.72
32.602667,66.71
32.608,66.67
32.613333,66.72
32.618667,66.8
32.624,66.86
32.629333,66.83
32.634667,66.82
32.64,66.79
32.645333,66.87
32.650667,66.92
32.656,66.98
32.661333,67.06
32.666667,67.09
32.672,67.15
32.677333,67.16
32.682667,67.13
32.688,67.22
32.693333,67.2
32.698667,67.25
32.704,67.25
32.709333,67.21
32.714667,67.18
32.72,67.25
32.725333,67.51
32.730667,67.57
32.736,67.6
32.741333,67.65
32.746667,67.66
32.752,67.63
32.757333,67.69
32.762667,67.72
32.768,67.74
32.773333,67.69
32.778667,67.7
32.784,67.78
32.789333,67.77
32.794667,67.78
32.8,67.83
32.805333,67.87
32.810667,67.91
32.816,67.91
32.821333,68.05
32.826667,68.1
32.832,68.06
32.837333,68.13
32.842667,68.08
32.848,68.02
32.853333,68.05
32.858667,68.1
32.864,68.16
32.869333,68.21
32.874667,68.23
32.88,68.3
32.885333,68.37
32.890667,68.36
32.896,68.41
32.901333,68.37
32.906667,68.36
32.912,68.4
32.917333,68.41
32.922667,68.35
32.928,68.3
32.933333,68.39
32.938667,68.47
32.944,68.51
32.949333,68.46
32.954667,68.43
32.96,68.51
32.965333,68.57
32.970667,68.59
32.976,68.66
32.981333,68.64
32.986667,68.62
32.992,68.64
32.997333,68.56
33.002667,68.57
33.008,68.53
33.013333,68.58
33.018667,68.54
33.024,68.53
33.029333,68.53
33.034667,68.67
33.04,68.67
33.045333,68.67
33.050667,68.68
33.056,68.65
33.061333,68.6
33.066667,68.52
33.072,68.52
33.077333,68.55
33.082667,68.55
33.088,68.58
33.093333,68.57
33.098667,68.61
33.104,68.65
33.109333,68.66
33.114667,68.68
33.12,68.74
33.125333,68.78
33.130667,68.73
33.136,68.74
33.141333,68.73
33.146667,68.73
33.152,68.78
33.157333,68.86
33.162667,68.85
33.168,68.85
33.173333,68.86
33.178667,68.82
33.184,68.89
33.189333,68.92
33.194667,68.94
33.2,68.93
33.205333,68.9
33.210667,68.87
33.216,68.86
33.221333,68.83
33.226667,68.79
33.232,68.76
33.237333,68.74
33.242667,68.72
33.248,68.73
33.253333,68.7
33.258667,68.67
33.264,68.69
33.269333,68.67
33.274667,68.7
33.28,68.65
33.285333,68.67
33.290667,68.73
33.296,68.75
33.301333,68.7
33.306667,68.72
33.312,68.68
33.317333,68.73
33.322667,68.74
33.328,68.75
33.333333,68.72
33.338667,68.71
33.344,68.68
33.349333,68.67
33.354667,68.79
33.36,68.92
33.365333,68.92
33.370667,68.93
33.376,68.94
33.381333,68.93
33.386667,68.98
33.392,68.92
33.397333,68.96
33.402667,68.95
33.408,68.9
33.413333,68.91
33.418667,69.06
33.424,69.04
33.429333,69.07
33.434667,69.05
33.44,69.02
33.445333,69.12
33.450667,69.14
33.456,69.07
33.461333,69.08
33.466667,69.07
33.472,69.09
33.477333,69.12
33.482667,69.14
33.488,69.14
33.493333,69.21
33.498667,69.15
33.504,69.14
33.509333,69.11
33.514667,69.1
33.52,69.08
33.525333,69.07
33.530667,69.14
33.536,69.11
33.541333,69.11
33.546667,69.12
33.552,69.11
33.557333,69.08
33.562667,69.1
33.568,69.09
33.573333,69.09
33.578667,69.04
33.584,68.98
33.589333,68.89
33.594667,68.91
33.6,68.89
33.605333,68.93
33.610667,68.94
33.616,68.91
33.621333,68.86
33.626667,68.98
33.632,68.97
33.637333,68.97
33.642667,68.94
33.648,68.89
33.653333,68.9
33.658667,68.86
33.664,68.91
33.669333,68.9
33.674667,68.98
33.68,68.96
33.685333,68.99
33.690667,69.02
33.696,69.01
33.701333,68.94
